# Top-of-atmosphere (TOA) lunar irradiance from Miller and Turner (2009)
# First column wavelength (nm), second column TOA irradiance# Lunar phase angle: 115
# Irradiance units: mW/m^2-micrometer

300 0.1199
301 0.08915
302 0.1123
303 0.1073
304 0.1517
305 0.1413
306 0.1443
307 0.1334
308 0.1552
309 0.1565
310 0.1195
311 0.1588
312 0.1884
313 0.1636
314 0.1775
315 0.1631
316 0.1679
317 0.1535
318 0.2137
319 0.1644
320 0.1812
321 0.2238
322 0.1775
323 0.1861
324 0.1735
325 0.208
326 0.2329
327 0.2656
328 0.2578
329 0.2397
330 0.2947
331 0.2721
332 0.2694
333 0.2614
334 0.2505
335 0.2679
336 0.2731
337 0.2162
338 0.2374
339 0.2548
340 0.2654
341 0.2931
342 0.257
343 0.286
344 0.2875
345 0.2074
346 0.2831
347 0.2628
348 0.2607
349 0.2718
350 0.2451
351 0.3239
352 0.289
353 0.2589
354 0.3125
355 0.3325
356 0.3118
357 0.2788
358 0.2532
359 0.1891
360 0.3235
361 0.3051
362 0.2705
363 0.3093
364 0.2921
365 0.3152
366 0.3618
367 0.3852
368 0.3715
369 0.3315
370 0.3901
371 0.3459
372 0.4002
373 0.3306
374 0.2855
375 0.2913
376 0.3502
377 0.3437
378 0.4143
379 0.4448
380 0.3401
381 0.3983
382 0.3621
383 0.2597
384 0.2165
385 0.314
386 0.3304
387 0.3347
388 0.327
389 0.3145
390 0.4022
391 0.4116
392 0.4792
393 0.3624
394 0.1579
395 0.3656
396 0.473
397 0.2514
398 0.2827
399 0.5389
400 0.5797
401 0.5825
402 0.6338
403 0.6438
404 0.6306
405 0.6163
406 0.5991
407 0.5836
408 0.5919
409 0.6002
410 0.6054
411 0.5609
412 0.5839
413 0.6069
414 0.6301
415 0.6326
416 0.6343
417 0.6425
418 0.6298
419 0.6296
420 0.6302
421 0.6458
422 0.6583
423 0.6359
424 0.6282
425 0.6437
426 0.6393
427 0.6367
428 0.6132
429 0.613
430 0.5564
431 0.4646
432 0.5759
433 0.6365
434 0.6284
435 0.6155
436 0.6618
437 0.6991
438 0.6778
439 0.6518
440 0.6792
441 0.7091
442 0.7363
443 0.7591
444 0.7616
445 0.7625
446 0.75
447 0.7455
448 0.7895
449 0.7997
450 0.8081
451 0.8448
452 0.8491
453 0.8097
454 0.7894
455 0.8261
456 0.8321
457 0.8552
458 0.8561
459 0.8355
460 0.8308
461 0.8442
462 0.8581
463 0.8668
464 0.8576
465 0.8391
466 0.8397
467 0.8336
468 0.8297
469 0.845
470 0.8393
471 0.8277
472 0.8487
473 0.8754
474 0.8646
475 0.8841
476 0.8842
477 0.8727
478 0.8962
479 0.8965
480 0.8964
481 0.8926
482 0.9
483 0.8924
484 0.8815
485 0.8716
486 0.7935
487 0.7501
488 0.8125
489 0.8384
490 0.8733
491 0.8865
492 0.8561
493 0.8547
494 0.8656
495 0.8871
496 0.8881
497 0.8855
498 0.8792
499 0.8654
500 0.8646
501 0.8515
502 0.8352
503 0.8536
504 0.8704
505 0.8676
506 0.9003
507 0.9149
508 0.9023
509 0.8895
510 0.8761
511 0.8672
512 0.885
513 0.8762
514 0.8558
515 0.8456
516 0.8592
517 0.8006
518 0.7535
519 0.7827
520 0.8384
521 0.8547
522 0.8712
523 0.8544
524 0.8702
525 0.8973
526 0.8882
527 0.8139
528 0.834
529 0.8883
530 0.8979
531 0.9115
532 0.9141
533 0.9047
534 0.8928
535 0.8963
536 0.9237
537 0.9035
538 0.9043
539 0.9111
540 0.8913
541 0.8743
542 0.8942
543 0.9054
544 0.9138
545 0.9226
546 0.9257
547 0.9266
548 0.9166
549 0.9219
550 0.9336
551 0.9297
552 0.9338
553 0.9331
554 0.9312
555 0.9415
556 0.9377
557 0.9192
558 0.9088
559 0.8978
560 0.8865
561 0.9089
562 0.918
563 0.9082
564 0.9135
565 0.9166
566 0.9094
567 0.9107
568 0.9276
569 0.921
570 0.9194
571 0.911
572 0.9133
573 0.9496
574 0.955
575 0.9476
576 0.9345
577 0.9392
578 0.9418
579 0.9298
580 0.9377
581 0.947
582 0.9523
583 0.9627
584 0.9644
585 0.9582
586 0.9418
587 0.9408
588 0.9546
589 0.9188
590 0.8805
591 0.9238
592 0.9464
593 0.9494
594 0.9488
595 0.9527
596 0.9493
597 0.9567
598 0.9564
599 0.9485
600 0.9515
601 0.9465
602 0.9362
603 0.9411
604 0.9593
605 0.9637
606 0.9592
607 0.9565
608 0.9536
609 0.9454
610 0.9411
611 0.9424
612 0.9448
613 0.9413
614 0.9304
615 0.9305
616 0.924
617 0.9076
618 0.9226
619 0.9372
620 0.9439
621 0.9534
622 0.9477
623 0.9426
624 0.9382
625 0.9306
626 0.9281
627 0.9472
628 0.9597
629 0.961
630 0.9509
631 0.9472
632 0.9345
633 0.9469
634 0.9425
635 0.9466
636 0.947
637 0.9453
638 0.9592
639 0.9595
640 0.9411
641 0.9346
642 0.9315
643 0.9422
644 0.9398
645 0.9419
646 0.9346
647 0.9366
648 0.944
649 0.9421
650 0.9149
651 0.9481
652 0.9537
653 0.9407
654 0.9337
655 0.9198
656 0.8598
657 0.7907
658 0.8757
659 0.9188
660 0.9226
661 0.9312
662 0.9373
663 0.9348
664 0.9243
665 0.9274
666 0.9305
667 0.9258
668 0.924
669 0.9306
670 0.9289
671 0.926
672 0.9222
673 0.92
674 0.9189
675 0.9178
676 0.9168
677 0.916
678 0.9152
679 0.9146
680 0.914
681 0.9136
682 0.9133
683 0.913
684 0.9129
685 0.9129
686 0.913
687 0.9131
688 0.9134
689 0.9154
690 0.9207
691 0.9227
692 0.9185
693 0.9157
694 0.9178
695 0.9131
696 0.9128
697 0.916
698 0.904
699 0.9155
700 0.9184
701 0.9064
702 0.901
703 0.9052
704 0.91
705 0.9198
706 0.9143
707 0.9037
708 0.9052
709 0.8976
710 0.892
711 0.8959
712 0.8841
713 0.8811
714 0.8834
715 0.882
716 0.8792
717 0.8834
718 0.8827
719 0.8717
720 0.8724
721 0.8745
722 0.8753
723 0.8746
724 0.8787
725 0.8768
726 0.8698
727 0.8726
728 0.8713
729 0.8556
730 0.8523
731 0.8684
732 0.8668
733 0.8665
734 0.867
735 0.8677
736 0.8589
737 0.8567
738 0.856
739 0.8371
740 0.8386
741 0.8343
742 0.8285
743 0.8413
744 0.8541
745 0.8457
746 0.855
747 0.8521
748 0.8554
749 0.8508
750 0.8415
