# Top-of-atmosphere (TOA) lunar irradiance from Miller and Turner (2009) by 10 nm increments
# First column wavelength (nm), second column TOA irradiance# Phase angle = 39
# Units = mW/m^2-micrometer

300 0.003706
310 0.00371
320 0.005649
330 0.009228
340 0.008347
350 0.007742
360 0.01026
370 0.01243
380 0.01089
390 0.01293
400 0.01872
410 0.01963
420 0.02053
430 0.0182
440 0.02232
450 0.02667
460 0.02753
470 0.02794
480 0.02997
490 0.02932
500 0.02916
510 0.02968
520 0.02852
530 0.03068
540 0.03059
550 0.03218
560 0.03069
570 0.03197
580 0.03275
590 0.03088
600 0.03352
610 0.0333
620 0.03354
630 0.03394
640 0.03374
650 0.03294
660 0.03336
670 0.03373
680 0.03334
690 0.03373
700 0.03379
710 0.03296
720 0.03238
730 0.03177
740 0.0314
750 0.03165
