# Top-of-atmosphere (TOA) lunar irradiance from Miller and Turner (2009) by 10 nm increments
# First column wavelength (nm), second column TOA irradiance# Phase angle = 31
# Units = mW/m^2-micrometer

300 0.002064
310 0.002067
320 0.00315
330 0.005148
340 0.00466
350 0.004324
360 0.005737
370 0.006953
380 0.006092
390 0.00724
400 0.01049
410 0.01101
420 0.01152
430 0.01022
440 0.01254
450 0.01499
460 0.01549
470 0.01572
480 0.01688
490 0.01652
500 0.01644
510 0.01674
520 0.0161
530 0.01733
540 0.01729
550 0.0182
560 0.01737
570 0.0181
580 0.01856
590 0.01751
600 0.01902
610 0.01891
620 0.01906
630 0.01929
640 0.01919
650 0.01875
660 0.019
670 0.01922
680 0.01901
690 0.01925
700 0.0193
710 0.01883
720 0.01851
730 0.01818
740 0.01797
750 0.01813
