# Top-of-atmosphere (TOA) lunar irradiance from Miller and Turner (2009)
# First column wavelength (nm), second column TOA irradiance# Lunar phase angle: 83
# Irradiance units: mW/m^2-micrometer

300 0.04369
301 0.03249
302 0.04091
303 0.0391
304 0.0553
305 0.05151
306 0.05259
307 0.04865
308 0.05658
309 0.05707
310 0.04358
311 0.0579
312 0.0687
313 0.05967
314 0.06474
315 0.05949
316 0.06126
317 0.05599
318 0.07798
319 0.05998
320 0.06611
321 0.08167
322 0.06479
323 0.06791
324 0.06334
325 0.07591
326 0.08503
327 0.09695
328 0.09413
329 0.08753
330 0.1076
331 0.09934
332 0.09838
333 0.09547
334 0.09148
335 0.09786
336 0.09976
337 0.07898
338 0.08672
339 0.0931
340 0.09696
341 0.1071
342 0.09393
343 0.1045
344 0.1051
345 0.07581
346 0.1035
347 0.09605
348 0.0953
349 0.09938
350 0.0896
351 0.1184
352 0.1057
353 0.09468
354 0.1143
355 0.1216
356 0.114
357 0.102
358 0.09262
359 0.06916
360 0.1184
361 0.1116
362 0.09896
363 0.1132
364 0.1069
365 0.1154
366 0.1324
367 0.141
368 0.136
369 0.1214
370 0.1428
371 0.1266
372 0.1465
373 0.1211
374 0.1045
375 0.1067
376 0.1282
377 0.1259
378 0.1517
379 0.1629
380 0.1246
381 0.1459
382 0.1327
383 0.09517
384 0.07932
385 0.1151
386 0.1211
387 0.1227
388 0.1198
389 0.1153
390 0.1474
391 0.1509
392 0.1757
393 0.1329
394 0.05789
395 0.1341
396 0.1735
397 0.09222
398 0.1037
399 0.1977
400 0.2126
401 0.2137
402 0.2325
403 0.2362
404 0.2314
405 0.2261
406 0.2199
407 0.2142
408 0.2172
409 0.2203
410 0.2222
411 0.2059
412 0.2144
413 0.2228
414 0.2314
415 0.2323
416 0.2329
417 0.2359
418 0.2313
419 0.2312
420 0.2315
421 0.2372
422 0.2418
423 0.2336
424 0.2308
425 0.2365
426 0.2349
427 0.234
428 0.2253
429 0.2253
430 0.2045
431 0.1708
432 0.2117
433 0.234
434 0.231
435 0.2263
436 0.2433
437 0.2571
438 0.2493
439 0.2397
440 0.2498
441 0.2608
442 0.2708
443 0.2792
444 0.2802
445 0.2805
446 0.276
447 0.2743
448 0.2905
449 0.2943
450 0.2974
451 0.3109
452 0.3125
453 0.2981
454 0.2906
455 0.3041
456 0.3064
457 0.3149
458 0.3152
459 0.3077
460 0.306
461 0.3109
462 0.316
463 0.3193
464 0.3159
465 0.3091
466 0.3094
467 0.3071
468 0.3057
469 0.3114
470 0.3093
471 0.305
472 0.3128
473 0.3227
474 0.3187
475 0.3259
476 0.326
477 0.3218
478 0.3304
479 0.3306
480 0.3306
481 0.3292
482 0.3319
483 0.3291
484 0.3251
485 0.3215
486 0.2927
487 0.2767
488 0.2998
489 0.3094
490 0.3223
491 0.3272
492 0.3159
493 0.3155
494 0.3195
495 0.3275
496 0.3278
497 0.3269
498 0.3246
499 0.3195
500 0.3193
501 0.3144
502 0.3084
503 0.3153
504 0.3215
505 0.3205
506 0.3326
507 0.338
508 0.3333
509 0.3287
510 0.3237
511 0.3204
512 0.3271
513 0.3238
514 0.3163
515 0.3126
516 0.3176
517 0.296
518 0.2786
519 0.2894
520 0.31
521 0.316
522 0.3221
523 0.316
524 0.3218
525 0.3319
526 0.3285
527 0.3011
528 0.3085
529 0.3286
530 0.3322
531 0.3373
532 0.3383
533 0.3348
534 0.3304
535 0.3317
536 0.3419
537 0.3344
538 0.3348
539 0.3373
540 0.33
541 0.3237
542 0.3311
543 0.3353
544 0.3384
545 0.3417
546 0.3428
547 0.3432
548 0.3395
549 0.3415
550 0.3459
551 0.3445
552 0.346
553 0.3458
554 0.3451
555 0.3489
556 0.3475
557 0.3407
558 0.3369
559 0.3328
560 0.3286
561 0.337
562 0.3404
563 0.3368
564 0.3387
565 0.3399
566 0.3373
567 0.3378
568 0.3441
569 0.3417
570 0.3411
571 0.338
572 0.3388
573 0.3523
574 0.3544
575 0.3517
576 0.3468
577 0.3486
578 0.3496
579 0.3451
580 0.3481
581 0.3516
582 0.3536
583 0.3574
584 0.3581
585 0.3558
586 0.3498
587 0.3494
588 0.3545
589 0.3413
590 0.3271
591 0.3432
592 0.3516
593 0.3527
594 0.3525
595 0.354
596 0.3528
597 0.3555
598 0.3554
599 0.3525
600 0.3537
601 0.3518
602 0.348
603 0.3499
604 0.3567
605 0.3583
606 0.3567
607 0.3557
608 0.3546
609 0.3516
610 0.3501
611 0.3505
612 0.3515
613 0.3502
614 0.3461
615 0.3462
616 0.3438
617 0.3377
618 0.3433
619 0.3488
620 0.3513
621 0.3549
622 0.3528
623 0.3509
624 0.3493
625 0.3465
626 0.3456
627 0.3527
628 0.3574
629 0.3579
630 0.3541
631 0.3528
632 0.3481
633 0.3527
634 0.3511
635 0.3526
636 0.3528
637 0.3522
638 0.3574
639 0.3576
640 0.3508
641 0.3483
642 0.3472
643 0.3512
644 0.3503
645 0.3512
646 0.3485
647 0.3492
648 0.352
649 0.3513
650 0.3412
651 0.3536
652 0.3557
653 0.3509
654 0.3483
655 0.3431
656 0.3208
657 0.295
658 0.3268
659 0.3429
660 0.3443
661 0.3475
662 0.3498
663 0.3489
664 0.345
665 0.3462
666 0.3474
667 0.3457
668 0.345
669 0.3475
670 0.3469
671 0.3458
672 0.3444
673 0.3436
674 0.3432
675 0.3428
676 0.3425
677 0.3422
678 0.342
679 0.3417
680 0.3415
681 0.3414
682 0.3413
683 0.3412
684 0.3412
685 0.3412
686 0.3413
687 0.3414
688 0.3415
689 0.3423
690 0.3443
691 0.345
692 0.3435
693 0.3425
694 0.3433
695 0.3415
696 0.3414
697 0.3427
698 0.3382
699 0.3425
700 0.3436
701 0.3392
702 0.3372
703 0.3388
704 0.3406
705 0.3443
706 0.3423
707 0.3383
708 0.3389
709 0.336
710 0.334
711 0.3355
712 0.331
713 0.33
714 0.3309
715 0.3304
716 0.3293
717 0.3309
718 0.3307
719 0.3266
720 0.3269
721 0.3277
722 0.328
723 0.3277
724 0.3293
725 0.3286
726 0.326
727 0.3271
728 0.3266
729 0.3207
730 0.3195
731 0.3256
732 0.325
733 0.3249
734 0.3251
735 0.3254
736 0.3221
737 0.3213
738 0.3211
739 0.314
740 0.3146
741 0.313
742 0.3108
743 0.3157
744 0.3205
745 0.3174
746 0.3209
747 0.3198
748 0.3211
749 0.3194
750 0.3159
