# Top-of-atmosphere (TOA) lunar irradiance from Miller and Turner (2009)
# First column wavelength (nm), second column TOA irradiance# Lunar phase angle: 58
# Irradiance units: mW/m^2-micrometer

300 0.01278
301 0.009504
302 0.01197
303 0.01144
304 0.01619
305 0.01508
306 0.0154
307 0.01425
308 0.01657
309 0.01672
310 0.01277
311 0.01697
312 0.02014
313 0.01749
314 0.01898
315 0.01745
316 0.01797
317 0.01643
318 0.02288
319 0.0176
320 0.0194
321 0.02398
322 0.01903
323 0.01995
324 0.01861
325 0.0223
326 0.02499
327 0.02849
328 0.02767
329 0.02573
330 0.03164
331 0.02922
332 0.02894
333 0.02809
334 0.02692
335 0.0288
336 0.02937
337 0.02325
338 0.02554
339 0.02742
340 0.02857
341 0.03156
342 0.02768
343 0.03081
344 0.03098
345 0.02235
346 0.03052
347 0.02833
348 0.02812
349 0.02932
350 0.02644
351 0.03495
352 0.0312
353 0.02796
354 0.03375
355 0.03592
356 0.03369
357 0.03013
358 0.02738
359 0.02045
360 0.03499
361 0.03302
362 0.02927
363 0.03348
364 0.03162
365 0.03414
366 0.0392
367 0.04174
368 0.04027
369 0.03594
370 0.0423
371 0.03752
372 0.04341
373 0.03588
374 0.03099
375 0.03163
376 0.03803
377 0.03733
378 0.04501
379 0.04834
380 0.03697
381 0.04331
382 0.03938
383 0.02826
384 0.02356
385 0.03417
386 0.03597
387 0.03644
388 0.03561
389 0.03426
390 0.04382
391 0.04486
392 0.05225
393 0.03953
394 0.01722
395 0.03989
396 0.05162
397 0.02745
398 0.03087
399 0.05886
400 0.06333
401 0.06365
402 0.06927
403 0.07038
404 0.06895
405 0.06741
406 0.06555
407 0.06386
408 0.06478
409 0.06571
410 0.0663
411 0.06144
412 0.06397
413 0.06652
414 0.06907
415 0.06937
416 0.06956
417 0.07048
418 0.0691
419 0.0691
420 0.06919
421 0.07091
422 0.07231
423 0.06986
424 0.06904
425 0.07075
426 0.07028
427 0.07002
428 0.06745
429 0.06744
430 0.06123
431 0.05115
432 0.06341
433 0.07011
434 0.06923
435 0.06782
436 0.07294
437 0.07707
438 0.07474
439 0.07189
440 0.07494
441 0.07825
442 0.08127
443 0.08381
444 0.0841
445 0.08423
446 0.08287
447 0.08239
448 0.08728
449 0.08842
450 0.08938
451 0.09346
452 0.09396
453 0.08962
454 0.08739
455 0.09147
456 0.09217
457 0.09475
458 0.09487
459 0.09261
460 0.09211
461 0.09362
462 0.09518
463 0.09617
464 0.09518
465 0.09315
466 0.09324
467 0.09258
468 0.09217
469 0.09389
470 0.09329
471 0.09201
472 0.09437
473 0.09737
474 0.09619
475 0.09839
476 0.09842
477 0.09717
478 0.0998
479 0.09986
480 0.09988
481 0.09948
482 0.1003
483 0.0995
484 0.09831
485 0.09723
486 0.08854
487 0.08372
488 0.0907
489 0.09362
490 0.09754
491 0.09904
492 0.09567
493 0.09554
494 0.09678
495 0.0992
496 0.09934
497 0.09908
498 0.09839
499 0.09687
500 0.09681
501 0.09536
502 0.09356
503 0.09565
504 0.09756
505 0.09726
506 0.101
507 0.1026
508 0.1012
509 0.09982
510 0.09834
511 0.09736
512 0.09939
513 0.09843
514 0.09615
515 0.09504
516 0.09658
517 0.09002
518 0.08474
519 0.08804
520 0.09434
521 0.09619
522 0.09807
523 0.09621
524 0.09801
525 0.1011
526 0.1001
527 0.09174
528 0.09403
529 0.1002
530 0.1013
531 0.1028
532 0.1032
533 0.1021
534 0.1008
535 0.1012
536 0.1043
537 0.1021
538 0.1022
539 0.103
540 0.1008
541 0.09889
542 0.1012
543 0.1025
544 0.1034
545 0.1045
546 0.1048
547 0.105
548 0.1039
549 0.1045
550 0.1058
551 0.1054
552 0.1059
553 0.1059
554 0.1057
555 0.1069
556 0.1064
557 0.1044
558 0.1032
559 0.102
560 0.1007
561 0.1033
562 0.1044
563 0.1033
564 0.1039
565 0.1043
566 0.1035
567 0.1037
568 0.1056
569 0.1049
570 0.1047
571 0.1038
572 0.1041
573 0.1083
574 0.1089
575 0.1081
576 0.1066
577 0.1072
578 0.1075
579 0.1062
580 0.1071
581 0.1082
582 0.1088
583 0.11
584 0.1102
585 0.1096
586 0.1077
587 0.1076
588 0.1092
589 0.1052
590 0.1008
591 0.1058
592 0.1084
593 0.1088
594 0.1087
595 0.1092
596 0.1088
597 0.1097
598 0.1097
599 0.1088
600 0.1092
601 0.1087
602 0.1075
603 0.1081
604 0.1102
605 0.1107
606 0.1102
607 0.11
608 0.1097
609 0.1087
610 0.1083
611 0.1084
612 0.1088
613 0.1084
614 0.1071
615 0.1072
616 0.1065
617 0.1046
618 0.1064
619 0.1081
620 0.1089
621 0.11
622 0.1093
623 0.1088
624 0.1083
625 0.1075
626 0.1072
627 0.1094
628 0.1109
629 0.1111
630 0.1099
631 0.1095
632 0.1081
633 0.1096
634 0.1091
635 0.1096
636 0.1097
637 0.1095
638 0.1111
639 0.1112
640 0.1091
641 0.1083
642 0.108
643 0.1093
644 0.109
645 0.1093
646 0.1085
647 0.1087
648 0.1096
649 0.1094
650 0.1063
651 0.1102
652 0.1109
653 0.1094
654 0.1086
655 0.107
656 0.1001
657 0.09203
658 0.102
659 0.107
660 0.1075
661 0.1085
662 0.1092
663 0.109
664 0.1078
665 0.1082
666 0.1085
667 0.108
668 0.1078
669 0.1086
670 0.1085
671 0.1081
672 0.1077
673 0.1075
674 0.1074
675 0.1073
676 0.1072
677 0.1071
678 0.1071
679 0.107
680 0.107
681 0.107
682 0.107
683 0.1069
684 0.107
685 0.107
686 0.107
687 0.1071
688 0.1071
689 0.1074
690 0.108
691 0.1083
692 0.1078
693 0.1075
694 0.1078
695 0.1073
696 0.1073
697 0.1077
698 0.1063
699 0.1077
700 0.108
701 0.1066
702 0.106
703 0.1066
704 0.1072
705 0.1083
706 0.1077
707 0.1065
708 0.1067
709 0.1058
710 0.1052
711 0.1057
712 0.1043
713 0.104
714 0.1043
715 0.1041
716 0.1038
717 0.1044
718 0.1043
719 0.103
720 0.1031
721 0.1034
722 0.1035
723 0.1035
724 0.104
725 0.1038
726 0.103
727 0.1033
728 0.1032
729 0.1014
730 0.101
731 0.1029
732 0.1028
733 0.1028
734 0.1028
735 0.1029
736 0.1019
737 0.1017
738 0.1016
739 0.09941
740 0.09963
741 0.09914
742 0.09847
743 0.1
744 0.1016
745 0.1006
746 0.1017
747 0.1014
748 0.1018
749 0.1013
750 0.1002
