# Top-of-atmosphere (TOA) lunar irradiance from Miller and Turner (2009)
# First column wavelength (nm), second column TOA irradiance# Lunar phase angle: 93
# Irradiance units: mW/m^2-micrometer

300 0.06309
301 0.04692
302 0.05908
303 0.05645
304 0.07985
305 0.07437
306 0.07593
307 0.07024
308 0.08168
309 0.08239
310 0.06291
311 0.08358
312 0.09917
313 0.08613
314 0.09344
315 0.08586
316 0.08841
317 0.08081
318 0.1125
319 0.08656
320 0.0954
321 0.1179
322 0.0935
323 0.09799
324 0.09139
325 0.1095
326 0.1227
327 0.1399
328 0.1358
329 0.1263
330 0.1552
331 0.1433
332 0.1419
333 0.1377
334 0.132
335 0.1411
336 0.1439
337 0.1139
338 0.1251
339 0.1343
340 0.1398
341 0.1545
342 0.1354
343 0.1507
344 0.1515
345 0.1093
346 0.1492
347 0.1385
348 0.1374
349 0.1433
350 0.1292
351 0.1707
352 0.1523
353 0.1365
354 0.1647
355 0.1753
356 0.1644
357 0.147
358 0.1335
359 0.09967
360 0.1706
361 0.1609
362 0.1426
363 0.1631
364 0.154
365 0.1662
366 0.1908
367 0.2031
368 0.1959
369 0.1748
370 0.2057
371 0.1824
372 0.2111
373 0.1744
374 0.1506
375 0.1537
376 0.1847
377 0.1813
378 0.2185
379 0.2346
380 0.1794
381 0.2101
382 0.191
383 0.137
384 0.1142
385 0.1657
386 0.1744
387 0.1766
388 0.1725
389 0.166
390 0.2122
391 0.2172
392 0.2529
393 0.1913
394 0.08333
395 0.1929
396 0.2496
397 0.1327
398 0.1492
399 0.2845
400 0.306
401 0.3075
402 0.3346
403 0.3399
404 0.3329
405 0.3254
406 0.3163
407 0.3081
408 0.3125
409 0.3169
410 0.3197
411 0.2962
412 0.3083
413 0.3205
414 0.3328
415 0.3341
416 0.335
417 0.3393
418 0.3326
419 0.3325
420 0.3329
421 0.3411
422 0.3477
423 0.3359
424 0.3319
425 0.34
426 0.3377
427 0.3364
428 0.324
429 0.3239
430 0.294
431 0.2455
432 0.3043
433 0.3364
434 0.3321
435 0.3253
436 0.3497
437 0.3695
438 0.3582
439 0.3445
440 0.359
441 0.3748
442 0.3892
443 0.4012
444 0.4026
445 0.4031
446 0.3965
447 0.3941
448 0.4174
449 0.4228
450 0.4272
451 0.4467
452 0.4489
453 0.4281
454 0.4174
455 0.4368
456 0.44
457 0.4523
458 0.4527
459 0.4418
460 0.4393
461 0.4465
462 0.4538
463 0.4584
464 0.4536
465 0.4438
466 0.4442
467 0.4409
468 0.4389
469 0.447
470 0.444
471 0.4379
472 0.449
473 0.4631
474 0.4574
475 0.4678
476 0.4678
477 0.4618
478 0.4742
479 0.4744
480 0.4744
481 0.4724
482 0.4763
483 0.4723
484 0.4665
485 0.4613
486 0.42
487 0.397
488 0.43
489 0.4438
490 0.4623
491 0.4693
492 0.4532
493 0.4525
494 0.4583
495 0.4696
496 0.4702
497 0.4688
498 0.4655
499 0.4582
500 0.4578
501 0.4509
502 0.4423
503 0.452
504 0.461
505 0.4595
506 0.4768
507 0.4846
508 0.4779
509 0.4711
510 0.4641
511 0.4593
512 0.4688
513 0.4641
514 0.4533
515 0.448
516 0.4551
517 0.4241
518 0.3992
519 0.4147
520 0.4442
521 0.4528
522 0.4616
523 0.4527
524 0.4611
525 0.4755
526 0.4707
527 0.4313
528 0.442
529 0.4708
530 0.4759
531 0.4831
532 0.4845
533 0.4795
534 0.4732
535 0.4751
536 0.4896
537 0.479
538 0.4794
539 0.483
540 0.4725
541 0.4635
542 0.4741
543 0.48
544 0.4845
545 0.4892
546 0.4908
547 0.4914
548 0.4861
549 0.4889
550 0.4951
551 0.493
552 0.4953
553 0.4949
554 0.4939
555 0.4994
556 0.4973
557 0.4876
558 0.4821
559 0.4762
560 0.4702
561 0.4821
562 0.487
563 0.4818
564 0.4846
565 0.4863
566 0.4825
567 0.4832
568 0.4922
569 0.4887
570 0.4879
571 0.4834
572 0.4847
573 0.5039
574 0.5068
575 0.5029
576 0.496
577 0.4985
578 0.4999
579 0.4935
580 0.4977
581 0.5027
582 0.5055
583 0.511
584 0.512
585 0.5087
586 0.5
587 0.4995
588 0.5068
589 0.4878
590 0.4675
591 0.4905
592 0.5025
593 0.5041
594 0.5038
595 0.5059
596 0.5041
597 0.5081
598 0.5079
599 0.5038
600 0.5054
601 0.5027
602 0.4973
603 0.4999
604 0.5096
605 0.5119
606 0.5096
607 0.5081
608 0.5066
609 0.5023
610 0.5
611 0.5007
612 0.502
613 0.5001
614 0.4944
615 0.4944
616 0.491
617 0.4823
618 0.4903
619 0.4981
620 0.5016
621 0.5067
622 0.5037
623 0.501
624 0.4987
625 0.4946
626 0.4933
627 0.5035
628 0.5102
629 0.5109
630 0.5055
631 0.5036
632 0.4968
633 0.5034
634 0.5011
635 0.5033
636 0.5035
637 0.5026
638 0.5101
639 0.5102
640 0.5005
641 0.497
642 0.4954
643 0.5011
644 0.4998
645 0.501
646 0.4971
647 0.4982
648 0.5021
649 0.5011
650 0.4867
651 0.5043
652 0.5074
653 0.5004
654 0.4968
655 0.4894
656 0.4575
657 0.4207
658 0.466
659 0.4889
660 0.4909
661 0.4955
662 0.4988
663 0.4974
664 0.4919
665 0.4936
666 0.4952
667 0.4927
668 0.4918
669 0.4953
670 0.4944
671 0.4929
672 0.4909
673 0.4897
674 0.4891
675 0.4886
676 0.4881
677 0.4877
678 0.4873
679 0.4869
680 0.4867
681 0.4864
682 0.4863
683 0.4862
684 0.4861
685 0.4861
686 0.4862
687 0.4863
688 0.4865
689 0.4875
690 0.4904
691 0.4915
692 0.4892
693 0.4878
694 0.4889
695 0.4864
696 0.4862
697 0.488
698 0.4816
699 0.4877
700 0.4893
701 0.4829
702 0.4801
703 0.4823
704 0.4849
705 0.4901
706 0.4872
707 0.4816
708 0.4824
709 0.4783
710 0.4754
711 0.4775
712 0.4712
713 0.4696
714 0.4709
715 0.4701
716 0.4686
717 0.4709
718 0.4705
719 0.4647
720 0.4651
721 0.4662
722 0.4666
723 0.4663
724 0.4685
725 0.4675
726 0.4638
727 0.4653
728 0.4646
729 0.4562
730 0.4545
731 0.4631
732 0.4622
733 0.4621
734 0.4624
735 0.4628
736 0.4581
737 0.4569
738 0.4566
739 0.4465
740 0.4473
741 0.445
742 0.4419
743 0.4488
744 0.4556
745 0.4512
746 0.4562
747 0.4546
748 0.4564
749 0.454
750 0.449
