# Top-of-atmosphere (TOA) lunar irradiance from Miller and Turner (2009)
# First column wavelength (nm), second column TOA irradiance# Lunar phase angle: 86
# Irradiance units: mW/m^2-micrometer

300 0.04903
301 0.03646
302 0.04591
303 0.04387
304 0.06205
305 0.0578
306 0.05901
307 0.05458
308 0.06348
309 0.06403
310 0.0489
311 0.06496
312 0.07708
313 0.06695
314 0.07263
315 0.06674
316 0.06873
317 0.06282
318 0.08748
319 0.06729
320 0.07416
321 0.09162
322 0.07269
323 0.07619
324 0.07105
325 0.08516
326 0.09539
327 0.1088
328 0.1056
329 0.09818
330 0.1207
331 0.1114
332 0.1104
333 0.1071
334 0.1026
335 0.1098
336 0.1119
337 0.08859
338 0.09727
339 0.1044
340 0.1088
341 0.1201
342 0.1053
343 0.1172
344 0.1178
345 0.08502
346 0.116
347 0.1077
348 0.1069
349 0.1114
350 0.1005
351 0.1328
352 0.1185
353 0.1062
354 0.1281
355 0.1364
356 0.1279
357 0.1143
358 0.1039
359 0.07755
360 0.1327
361 0.1252
362 0.111
363 0.1269
364 0.1198
365 0.1293
366 0.1485
367 0.1581
368 0.1525
369 0.1361
370 0.1601
371 0.142
372 0.1643
373 0.1357
374 0.1172
375 0.1196
376 0.1438
377 0.1411
378 0.1701
379 0.1827
380 0.1397
381 0.1636
382 0.1487
383 0.1067
384 0.08892
385 0.129
386 0.1357
387 0.1375
388 0.1343
389 0.1292
390 0.1652
391 0.1691
392 0.1969
393 0.149
394 0.06489
395 0.1503
396 0.1944
397 0.1034
398 0.1162
399 0.2215
400 0.2383
401 0.2395
402 0.2606
403 0.2647
404 0.2593
405 0.2534
406 0.2464
407 0.24
408 0.2434
409 0.2469
410 0.249
411 0.2307
412 0.2402
413 0.2497
414 0.2592
415 0.2603
416 0.261
417 0.2644
418 0.2592
419 0.2591
420 0.2594
421 0.2658
422 0.271
423 0.2617
424 0.2586
425 0.265
426 0.2632
427 0.2621
428 0.2525
429 0.2524
430 0.2291
431 0.1913
432 0.2372
433 0.2622
434 0.2588
435 0.2535
436 0.2726
437 0.288
438 0.2792
439 0.2685
440 0.2799
441 0.2922
442 0.3034
443 0.3128
444 0.3138
445 0.3142
446 0.3091
447 0.3073
448 0.3254
449 0.3296
450 0.3331
451 0.3483
452 0.3501
453 0.3338
454 0.3255
455 0.3406
456 0.3431
457 0.3527
458 0.353
459 0.3446
460 0.3426
461 0.3482
462 0.3539
463 0.3576
464 0.3538
465 0.3462
466 0.3464
467 0.3439
468 0.3423
469 0.3487
470 0.3464
471 0.3416
472 0.3503
473 0.3613
474 0.3569
475 0.3649
476 0.365
477 0.3603
478 0.37
479 0.3701
480 0.3701
481 0.3686
482 0.3716
483 0.3685
484 0.364
485 0.36
486 0.3277
487 0.3098
488 0.3356
489 0.3463
490 0.3608
491 0.3662
492 0.3537
493 0.3531
494 0.3577
495 0.3666
496 0.367
497 0.3659
498 0.3634
499 0.3577
500 0.3574
501 0.352
502 0.3452
503 0.3529
504 0.3599
505 0.3587
506 0.3722
507 0.3783
508 0.3731
509 0.3678
510 0.3623
511 0.3586
512 0.366
513 0.3624
514 0.354
515 0.3498
516 0.3554
517 0.3312
518 0.3117
519 0.3238
520 0.3469
521 0.3537
522 0.3605
523 0.3536
524 0.3601
525 0.3714
526 0.3676
527 0.3369
528 0.3452
529 0.3677
530 0.3717
531 0.3774
532 0.3785
533 0.3746
534 0.3697
535 0.3712
536 0.3825
537 0.3742
538 0.3745
539 0.3773
540 0.3692
541 0.3622
542 0.3704
543 0.3751
544 0.3786
545 0.3823
546 0.3835
547 0.384
548 0.3798
549 0.382
550 0.3869
551 0.3853
552 0.3871
553 0.3868
554 0.386
555 0.3903
556 0.3887
557 0.3811
558 0.3768
559 0.3722
560 0.3676
561 0.3769
562 0.3807
563 0.3767
564 0.3789
565 0.3802
566 0.3772
567 0.3778
568 0.3848
569 0.3821
570 0.3814
571 0.378
572 0.3789
573 0.394
574 0.3963
575 0.3933
576 0.3878
577 0.3898
578 0.3909
579 0.3859
580 0.3892
581 0.3931
582 0.3953
583 0.3997
584 0.4004
585 0.3979
586 0.3911
587 0.3907
588 0.3964
589 0.3816
590 0.3657
591 0.3837
592 0.3931
593 0.3943
594 0.3941
595 0.3958
596 0.3944
597 0.3975
598 0.3974
599 0.3941
600 0.3954
601 0.3933
602 0.3891
603 0.3912
604 0.3987
605 0.4006
606 0.3987
607 0.3976
608 0.3964
609 0.3931
610 0.3913
611 0.3918
612 0.3929
613 0.3914
614 0.3869
615 0.387
616 0.3843
617 0.3775
618 0.3838
619 0.3899
620 0.3927
621 0.3966
622 0.3943
623 0.3922
624 0.3904
625 0.3872
626 0.3862
627 0.3942
628 0.3994
629 0.4
630 0.3958
631 0.3943
632 0.389
633 0.3942
634 0.3924
635 0.3941
636 0.3943
637 0.3936
638 0.3994
639 0.3996
640 0.3919
641 0.3892
642 0.3879
643 0.3924
644 0.3915
645 0.3923
646 0.3893
647 0.3902
648 0.3933
649 0.3925
650 0.3812
651 0.395
652 0.3974
653 0.392
654 0.3891
655 0.3833
656 0.3584
657 0.3296
658 0.365
659 0.383
660 0.3846
661 0.3882
662 0.3908
663 0.3898
664 0.3854
665 0.3867
666 0.388
667 0.3861
668 0.3854
669 0.3881
670 0.3874
671 0.3863
672 0.3847
673 0.3838
674 0.3833
675 0.3829
676 0.3825
677 0.3822
678 0.3819
679 0.3817
680 0.3814
681 0.3813
682 0.3812
683 0.3811
684 0.3811
685 0.3811
686 0.3811
687 0.3812
688 0.3814
689 0.3822
690 0.3844
691 0.3853
692 0.3836
693 0.3824
694 0.3833
695 0.3814
696 0.3812
697 0.3826
698 0.3776
699 0.3825
700 0.3837
701 0.3787
702 0.3765
703 0.3782
704 0.3803
705 0.3844
706 0.3821
707 0.3777
708 0.3783
709 0.3752
710 0.3728
711 0.3745
712 0.3696
713 0.3684
714 0.3693
715 0.3688
716 0.3676
717 0.3694
718 0.3691
719 0.3645
720 0.3649
721 0.3657
722 0.3661
723 0.3658
724 0.3676
725 0.3668
726 0.3639
727 0.3651
728 0.3645
729 0.358
730 0.3566
731 0.3634
732 0.3627
733 0.3627
734 0.3629
735 0.3632
736 0.3595
737 0.3586
738 0.3583
739 0.3504
740 0.3511
741 0.3493
742 0.3469
743 0.3523
744 0.3576
745 0.3542
746 0.3581
747 0.3569
748 0.3583
749 0.3564
750 0.3525
