# Top-of-atmosphere (TOA) lunar irradiance from Miller and Turner (2009)
# First column wavelength (nm), second column TOA irradiance# Lunar phase angle: 117
# Irradiance units: mW/m^2-micrometer

300 0.1262
301 0.09384
302 0.1182
303 0.1129
304 0.1597
305 0.1487
306 0.1518
307 0.1405
308 0.1633
309 0.1648
310 0.1258
311 0.1671
312 0.1983
313 0.1722
314 0.1868
315 0.1717
316 0.1768
317 0.1616
318 0.225
319 0.173
320 0.1907
321 0.2356
322 0.1869
323 0.1959
324 0.1827
325 0.2189
326 0.2452
327 0.2795
328 0.2714
329 0.2523
330 0.3101
331 0.2864
332 0.2836
333 0.2752
334 0.2636
335 0.282
336 0.2875
337 0.2276
338 0.2498
339 0.2682
340 0.2793
341 0.3085
342 0.2705
343 0.301
344 0.3026
345 0.2183
346 0.298
347 0.2766
348 0.2744
349 0.2861
350 0.2579
351 0.3409
352 0.3042
353 0.2725
354 0.3289
355 0.35
356 0.3282
357 0.2934
358 0.2665
359 0.199
360 0.3405
361 0.3212
362 0.2847
363 0.3255
364 0.3074
365 0.3317
366 0.3808
367 0.4054
368 0.391
369 0.3489
370 0.4106
371 0.3641
372 0.4212
373 0.348
374 0.3004
375 0.3066
376 0.3685
377 0.3617
378 0.436
379 0.4681
380 0.358
381 0.4192
382 0.3811
383 0.2734
384 0.2278
385 0.3304
386 0.3478
387 0.3522
388 0.3441
389 0.331
390 0.4232
391 0.4331
392 0.5044
393 0.3814
394 0.1662
395 0.3847
396 0.4978
397 0.2646
398 0.2975
399 0.5671
400 0.6101
401 0.613
402 0.6669
403 0.6775
404 0.6636
405 0.6486
406 0.6305
407 0.6142
408 0.6228
409 0.6316
410 0.6371
411 0.5903
412 0.6145
413 0.6387
414 0.6631
415 0.6658
416 0.6675
417 0.6761
418 0.6627
419 0.6625
420 0.6632
421 0.6796
422 0.6928
423 0.6691
424 0.6611
425 0.6774
426 0.6727
427 0.67
428 0.6453
429 0.645
430 0.5855
431 0.489
432 0.606
433 0.6698
434 0.6613
435 0.6477
436 0.6964
437 0.7357
438 0.7133
439 0.6859
440 0.7148
441 0.7462
442 0.7748
443 0.7988
444 0.8014
445 0.8024
446 0.7892
447 0.7845
448 0.8308
449 0.8415
450 0.8504
451 0.889
452 0.8935
453 0.852
454 0.8307
455 0.8692
456 0.8756
457 0.8999
458 0.9008
459 0.8791
460 0.8742
461 0.8883
462 0.9029
463 0.9121
464 0.9024
465 0.883
466 0.8836
467 0.8771
468 0.873
469 0.8891
470 0.8831
471 0.8709
472 0.893
473 0.9211
474 0.9097
475 0.9303
476 0.9303
477 0.9183
478 0.9429
479 0.9432
480 0.9432
481 0.9392
482 0.9469
483 0.9389
484 0.9275
485 0.9171
486 0.8349
487 0.7892
488 0.8549
489 0.8822
490 0.9189
491 0.9328
492 0.9007
493 0.8993
494 0.9108
495 0.9334
496 0.9344
497 0.9317
498 0.925
499 0.9105
500 0.9097
501 0.8959
502 0.8787
503 0.8981
504 0.9158
505 0.9128
506 0.9472
507 0.9626
508 0.9493
509 0.9359
510 0.9218
511 0.9124
512 0.9312
513 0.9219
514 0.9004
515 0.8897
516 0.9039
517 0.8423
518 0.7927
519 0.8234
520 0.8821
521 0.8992
522 0.9165
523 0.8989
524 0.9155
525 0.9441
526 0.9345
527 0.8562
528 0.8774
529 0.9346
530 0.9446
531 0.959
532 0.9617
533 0.9518
534 0.9393
535 0.943
536 0.9718
537 0.9506
538 0.9514
539 0.9585
540 0.9377
541 0.9198
542 0.9407
543 0.9525
544 0.9614
545 0.9706
546 0.9738
547 0.9749
548 0.9643
549 0.9698
550 0.9822
551 0.9781
552 0.9824
553 0.9817
554 0.9797
555 0.9905
556 0.9864
557 0.967
558 0.956
559 0.9445
560 0.9326
561 0.9561
562 0.9657
563 0.9554
564 0.961
565 0.9643
566 0.9567
567 0.958
568 0.9758
569 0.9689
570 0.9672
571 0.9583
572 0.9608
573 0.9989
574 1.005
575 0.9969
576 0.9831
577 0.988
578 0.9907
579 0.9781
580 0.9864
581 0.9962
582 1.002
583 1.013
584 1.015
585 1.008
586 0.9907
587 0.9897
588 1.004
589 0.9665
590 0.9262
591 0.9717
592 0.9956
593 0.9986
594 0.998
595 1.002
596 0.9986
597 1.006
598 1.006
599 0.9977
600 1.001
601 0.9956
602 0.9848
603 0.99
604 1.009
605 1.014
606 1.009
607 1.006
608 1.003
609 0.9945
610 0.99
611 0.9913
612 0.9938
613 0.9901
614 0.9786
615 0.9788
616 0.9719
617 0.9547
618 0.9705
619 0.9858
620 0.9929
621 1.003
622 0.9968
623 0.9915
624 0.9868
625 0.9788
626 0.9762
627 0.9963
628 1.009
629 1.011
630 1
631 0.9963
632 0.9829
633 0.996
634 0.9914
635 0.9956
636 0.9961
637 0.9943
638 1.009
639 1.009
640 0.9899
641 0.983
642 0.9797
643 0.991
644 0.9885
645 0.9907
646 0.983
647 0.9851
648 0.9929
649 0.9909
650 0.9623
651 0.9972
652 1.003
653 0.9894
654 0.9821
655 0.9674
656 0.9044
657 0.8317
658 0.9211
659 0.9664
660 0.9704
661 0.9794
662 0.9858
663 0.9832
664 0.9721
665 0.9754
666 0.9786
667 0.9737
668 0.9718
669 0.9787
670 0.9769
671 0.9739
672 0.9699
673 0.9676
674 0.9664
675 0.9653
676 0.9643
677 0.9633
678 0.9626
679 0.9619
680 0.9613
681 0.9608
682 0.9605
683 0.9602
684 0.9601
685 0.9601
686 0.9602
687 0.9603
688 0.9606
689 0.9627
690 0.9683
691 0.9704
692 0.9659
693 0.9631
694 0.9652
695 0.9603
696 0.9599
697 0.9633
698 0.9507
699 0.9628
700 0.9659
701 0.9532
702 0.9476
703 0.952
704 0.957
705 0.9673
706 0.9616
707 0.9504
708 0.9519
709 0.9439
710 0.938
711 0.9422
712 0.9297
713 0.9266
714 0.929
715 0.9276
716 0.9246
717 0.929
718 0.9283
719 0.9167
720 0.9175
721 0.9196
722 0.9204
723 0.9197
724 0.924
725 0.922
726 0.9147
727 0.9176
728 0.9162
729 0.8997
730 0.8963
731 0.9132
732 0.9115
733 0.9112
734 0.9117
735 0.9124
736 0.9032
737 0.9009
738 0.9001
739 0.8802
740 0.8819
741 0.8773
742 0.8712
743 0.8847
744 0.8981
745 0.8893
746 0.8991
747 0.896
748 0.8995
749 0.8947
750 0.8849
