# Top-of-atmosphere (TOA) lunar irradiance from Miller and Turner (2009) by 10 nm increments
# First column wavelength (nm), second column TOA irradiance# Phase angle = 33
# Units = mW/m^2-micrometer

300 0.002389
310 0.002393
320 0.003645
330 0.005957
340 0.005391
350 0.005002
360 0.006635
370 0.00804
380 0.007044
390 0.008369
400 0.01212
410 0.01272
420 0.01331
430 0.0118
440 0.01448
450 0.01731
460 0.01788
470 0.01815
480 0.01948
490 0.01907
500 0.01897
510 0.01932
520 0.01858
530 0.01999
540 0.01994
550 0.02099
560 0.02002
570 0.02087
580 0.02139
590 0.02018
600 0.02191
610 0.02178
620 0.02195
630 0.02222
640 0.0221
650 0.02159
660 0.02187
670 0.02213
680 0.02188
690 0.02215
700 0.0222
710 0.02166
720 0.02129
730 0.0209
740 0.02066
750 0.02084
