# Top-of-atmosphere (TOA) lunar irradiance from Miller and Turner (2009)
# First column wavelength (nm), second column TOA irradiance# Lunar phase angle: 11
# Irradiance units: mW/m^2-micrometer

300 0.0004701
301 0.0003497
302 0.0004406
303 0.0004212
304 0.0005959
305 0.0005553
306 0.0005671
307 0.0005248
308 0.0006106
309 0.0006161
310 0.0004707
311 0.0006256
312 0.0007425
313 0.0006451
314 0.0007002
315 0.0006437
316 0.0006631
317 0.0006063
318 0.0008447
319 0.0006499
320 0.0007166
321 0.0008857
322 0.0007029
323 0.000737
324 0.0006876
325 0.0008244
326 0.0009238
327 0.001054
328 0.001023
329 0.000952
330 0.001171
331 0.001081
332 0.001071
333 0.00104
334 0.0009968
335 0.001067
336 0.001088
337 0.0008616
338 0.0009463
339 0.001016
340 0.001059
341 0.00117
342 0.001027
343 0.001143
344 0.001149
345 0.0008295
346 0.001133
347 0.001052
348 0.001044
349 0.001089
350 0.0009821
351 0.001298
352 0.001159
353 0.001039
354 0.001254
355 0.001335
356 0.001253
357 0.001121
358 0.001018
359 0.0007606
360 0.001302
361 0.001229
362 0.00109
363 0.001246
364 0.001178
365 0.001271
366 0.00146
367 0.001555
368 0.001501
369 0.00134
370 0.001577
371 0.001399
372 0.001619
373 0.001338
374 0.001156
375 0.00118
376 0.001419
377 0.001394
378 0.001681
379 0.001805
380 0.001381
381 0.001618
382 0.001471
383 0.001056
384 0.0008805
385 0.001278
386 0.001345
387 0.001363
388 0.001332
389 0.001282
390 0.00164
391 0.001679
392 0.001956
393 0.00148
394 0.000645
395 0.001494
396 0.001934
397 0.001029
398 0.001157
399 0.002206
400 0.002374
401 0.002387
402 0.002598
403 0.00264
404 0.002587
405 0.00253
406 0.00246
407 0.002398
408 0.002433
409 0.002468
410 0.00249
411 0.002309
412 0.002404
413 0.0025
414 0.002597
415 0.002608
416 0.002616
417 0.002651
418 0.0026
419 0.0026
420 0.002604
421 0.002669
422 0.002722
423 0.002631
424 0.0026
425 0.002665
426 0.002648
427 0.002639
428 0.002542
429 0.002542
430 0.002309
431 0.001929
432 0.002392
433 0.002645
434 0.002612
435 0.00256
436 0.002753
437 0.00291
438 0.002823
439 0.002715
440 0.002831
441 0.002957
442 0.003071
443 0.003168
444 0.00318
445 0.003185
446 0.003134
447 0.003117
448 0.003302
449 0.003346
450 0.003383
451 0.003538
452 0.003558
453 0.003394
454 0.00331
455 0.003466
456 0.003492
457 0.003591
458 0.003596
459 0.003511
460 0.003493
461 0.003551
462 0.003611
463 0.003649
464 0.003612
465 0.003536
466 0.00354
467 0.003515
468 0.0035
469 0.003567
470 0.003544
471 0.003497
472 0.003587
473 0.003701
474 0.003657
475 0.003741
476 0.003743
477 0.003696
478 0.003797
479 0.0038
480 0.003802
481 0.003787
482 0.00382
483 0.00379
484 0.003745
485 0.003705
486 0.003374
487 0.003191
488 0.003458
489 0.00357
490 0.00372
491 0.003778
492 0.00365
493 0.003646
494 0.003694
495 0.003787
496 0.003793
497 0.003783
498 0.003758
499 0.003701
500 0.003699
501 0.003644
502 0.003576
503 0.003657
504 0.00373
505 0.00372
506 0.003862
507 0.003926
508 0.003874
509 0.003821
510 0.003765
511 0.003728
512 0.003806
513 0.00377
514 0.003684
515 0.003642
516 0.003701
517 0.003451
518 0.003249
519 0.003376
520 0.003618
521 0.00369
522 0.003763
523 0.003692
524 0.003762
525 0.003881
526 0.003843
527 0.003523
528 0.003612
529 0.003849
530 0.003892
531 0.003953
532 0.003966
533 0.003927
534 0.003877
535 0.003894
536 0.004014
537 0.003928
538 0.003933
539 0.003964
540 0.00388
541 0.003808
542 0.003896
543 0.003947
544 0.003985
545 0.004025
546 0.00404
547 0.004046
548 0.004004
549 0.004029
550 0.004082
551 0.004067
552 0.004087
553 0.004085
554 0.004079
555 0.004126
556 0.004111
557 0.004031
558 0.003987
559 0.003941
560 0.003893
561 0.003993
562 0.004035
563 0.003994
564 0.004019
565 0.004034
566 0.004004
567 0.004012
568 0.004088
569 0.004061
570 0.004055
571 0.00402
572 0.004032
573 0.004194
574 0.00422
575 0.004189
576 0.004133
577 0.004155
578 0.004168
579 0.004117
580 0.004154
581 0.004197
582 0.004222
583 0.00427
584 0.00428
585 0.004254
586 0.004183
587 0.00418
588 0.004243
589 0.004086
590 0.003918
591 0.004112
592 0.004215
593 0.004229
594 0.004229
595 0.004248
596 0.004235
597 0.004269
598 0.00427
599 0.004237
600 0.004252
601 0.004231
602 0.004187
603 0.004211
604 0.004294
605 0.004316
606 0.004298
607 0.004288
608 0.004276
609 0.004241
610 0.004224
611 0.004232
612 0.004244
613 0.00423
614 0.004183
615 0.004185
616 0.004158
617 0.004086
618 0.004155
619 0.004223
620 0.004255
621 0.004299
622 0.004276
623 0.004255
624 0.004237
625 0.004204
626 0.004195
627 0.004283
628 0.004341
629 0.004349
630 0.004305
631 0.00429
632 0.004235
633 0.004293
634 0.004275
635 0.004295
636 0.004299
637 0.004293
638 0.004358
639 0.004361
640 0.00428
641 0.004252
642 0.004239
643 0.00429
644 0.004281
645 0.004292
646 0.004261
647 0.004272
648 0.004308
649 0.004301
650 0.004179
651 0.004332
652 0.00436
653 0.004302
654 0.004272
655 0.00421
656 0.003937
657 0.003622
658 0.004014
659 0.004213
660 0.004232
661 0.004273
662 0.004303
663 0.004294
664 0.004247
665 0.004264
666 0.004279
667 0.00426
668 0.004253
669 0.004285
670 0.004279
671 0.004268
672 0.004252
673 0.004244
674 0.004241
675 0.004238
676 0.004235
677 0.004233
678 0.004231
679 0.00423
680 0.004229
681 0.004229
682 0.00423
683 0.00423
684 0.004232
685 0.004233
686 0.004236
687 0.004238
688 0.004241
689 0.004252
690 0.004279
691 0.00429
692 0.004272
693 0.004261
694 0.004273
695 0.004253
696 0.004253
697 0.00427
698 0.004216
699 0.004271
700 0.004287
701 0.004233
702 0.004209
703 0.004231
704 0.004255
705 0.004303
706 0.004279
707 0.004231
708 0.00424
709 0.004206
710 0.004182
711 0.004202
712 0.004148
713 0.004136
714 0.004149
715 0.004144
716 0.004132
717 0.004154
718 0.004153
719 0.004103
720 0.004108
721 0.004119
722 0.004125
723 0.004123
724 0.004145
725 0.004138
726 0.004106
727 0.004121
728 0.004117
729 0.004044
730 0.004031
731 0.004109
732 0.004103
733 0.004103
734 0.004107
735 0.004112
736 0.004072
737 0.004064
738 0.004062
739 0.003974
740 0.003983
741 0.003965
742 0.003938
743 0.004001
744 0.004064
745 0.004026
746 0.004072
747 0.00406
748 0.004077
749 0.004057
750 0.004015
