# Top-of-atmosphere (TOA) lunar irradiance from Miller and Turner (2009) by 10 nm increments
# First column wavelength (nm), second column TOA irradiance# Phase angle = 42
# Units = mW/m^2-micrometer

300 0.004548
310 0.004552
320 0.006929
330 0.01132
340 0.01023
350 0.009489
360 0.01258
370 0.01523
380 0.01333
390 0.01583
400 0.02291
410 0.02403
420 0.02511
430 0.02226
440 0.02729
450 0.0326
460 0.03365
470 0.03414
480 0.03661
490 0.03581
500 0.0356
510 0.03623
520 0.03481
530 0.03743
540 0.03731
550 0.03924
560 0.03741
570 0.03896
580 0.0399
590 0.03762
600 0.04082
610 0.04054
620 0.04083
630 0.0413
640 0.04104
650 0.04006
660 0.04057
670 0.04101
680 0.04052
690 0.04098
700 0.04105
710 0.04003
720 0.03932
730 0.03857
740 0.0381
750 0.03839
