# Top-of-atmosphere (TOA) lunar irradiance from Miller and Turner (2009)
# First column wavelength (nm), second column TOA irradiance# Lunar phase angle: 82
# Irradiance units: mW/m^2-micrometer

300 0.04204
301 0.03126
302 0.03937
303 0.03762
304 0.05322
305 0.04957
306 0.05061
307 0.04681
308 0.05445
309 0.05492
310 0.04194
311 0.05572
312 0.06611
313 0.05742
314 0.0623
315 0.05725
316 0.05895
317 0.05389
318 0.07504
319 0.05772
320 0.06362
321 0.0786
322 0.06236
323 0.06536
324 0.06096
325 0.07306
326 0.08184
327 0.09331
328 0.0906
329 0.08424
330 0.1035
331 0.09561
332 0.09469
333 0.09189
334 0.08804
335 0.09418
336 0.09602
337 0.07601
338 0.08346
339 0.0896
340 0.09332
341 0.1031
342 0.0904
343 0.1006
344 0.1011
345 0.07297
346 0.09959
347 0.09244
348 0.09172
349 0.09565
350 0.08624
351 0.114
352 0.1017
353 0.09113
354 0.11
355 0.117
356 0.1098
357 0.09814
358 0.08915
359 0.06657
360 0.1139
361 0.1075
362 0.09526
363 0.1089
364 0.1029
365 0.111
366 0.1275
367 0.1357
368 0.1309
369 0.1168
370 0.1375
371 0.1219
372 0.141
373 0.1165
374 0.1006
375 0.1027
376 0.1234
377 0.1212
378 0.1461
379 0.1568
380 0.1199
381 0.1405
382 0.1277
383 0.09162
384 0.07636
385 0.1108
386 0.1166
387 0.1181
388 0.1154
389 0.111
390 0.1419
391 0.1452
392 0.1691
393 0.1279
394 0.05573
395 0.1291
396 0.167
397 0.08878
398 0.09983
399 0.1903
400 0.2047
401 0.2057
402 0.2238
403 0.2274
404 0.2227
405 0.2177
406 0.2117
407 0.2062
408 0.2091
409 0.2121
410 0.2139
411 0.1982
412 0.2064
413 0.2145
414 0.2227
415 0.2236
416 0.2242
417 0.2272
418 0.2227
419 0.2226
420 0.2229
421 0.2284
422 0.2328
423 0.2249
424 0.2222
425 0.2277
426 0.2262
427 0.2253
428 0.217
429 0.2169
430 0.1969
431 0.1644
432 0.2038
433 0.2253
434 0.2225
435 0.2179
436 0.2343
437 0.2475
438 0.24
439 0.2308
440 0.2405
441 0.2511
442 0.2608
443 0.2689
444 0.2698
445 0.2701
446 0.2657
447 0.2641
448 0.2798
449 0.2834
450 0.2864
451 0.2994
452 0.301
453 0.287
454 0.2798
455 0.2929
456 0.295
457 0.3032
458 0.3035
459 0.2963
460 0.2946
461 0.2994
462 0.3043
463 0.3075
464 0.3042
465 0.2977
466 0.2979
467 0.2958
468 0.2944
469 0.2999
470 0.2979
471 0.2937
472 0.3012
473 0.3107
474 0.3069
475 0.3139
476 0.3139
477 0.3099
478 0.3182
479 0.3183
480 0.3183
481 0.317
482 0.3197
483 0.317
484 0.3131
485 0.3096
486 0.2819
487 0.2665
488 0.2887
489 0.2979
490 0.3104
491 0.3151
492 0.3043
493 0.3038
494 0.3077
495 0.3154
496 0.3157
497 0.3148
498 0.3126
499 0.3077
500 0.3075
501 0.3028
502 0.2971
503 0.3036
504 0.3096
505 0.3087
506 0.3203
507 0.3255
508 0.3211
509 0.3166
510 0.3118
511 0.3086
512 0.315
513 0.3119
514 0.3046
515 0.3011
516 0.3059
517 0.2851
518 0.2683
519 0.2787
520 0.2986
521 0.3044
522 0.3103
523 0.3043
524 0.31
525 0.3197
526 0.3165
527 0.29
528 0.2972
529 0.3166
530 0.32
531 0.3249
532 0.3258
533 0.3225
534 0.3183
535 0.3196
536 0.3293
537 0.3222
538 0.3225
539 0.3249
540 0.3179
541 0.3118
542 0.3189
543 0.3229
544 0.326
545 0.3292
546 0.3303
547 0.3306
548 0.3271
549 0.329
550 0.3332
551 0.3318
552 0.3333
553 0.3331
554 0.3324
555 0.3361
556 0.3348
557 0.3282
558 0.3245
559 0.3206
560 0.3166
561 0.3246
562 0.3279
563 0.3244
564 0.3263
565 0.3275
566 0.3249
567 0.3254
568 0.3315
569 0.3291
570 0.3286
571 0.3256
572 0.3264
573 0.3394
574 0.3414
575 0.3388
576 0.3341
577 0.3358
578 0.3368
579 0.3325
580 0.3354
581 0.3387
582 0.3406
583 0.3444
584 0.345
585 0.3428
586 0.337
587 0.3366
588 0.3416
589 0.3288
590 0.3151
591 0.3306
592 0.3388
593 0.3398
594 0.3397
595 0.3411
596 0.3399
597 0.3425
598 0.3425
599 0.3397
600 0.3408
601 0.339
602 0.3353
603 0.3371
604 0.3437
605 0.3453
606 0.3437
607 0.3427
608 0.3417
609 0.3388
610 0.3373
611 0.3378
612 0.3387
613 0.3374
614 0.3335
615 0.3336
616 0.3313
617 0.3254
618 0.3308
619 0.3361
620 0.3385
621 0.3419
622 0.3399
623 0.3381
624 0.3366
625 0.3339
626 0.333
627 0.3399
628 0.3444
629 0.3449
630 0.3413
631 0.34
632 0.3354
633 0.3399
634 0.3384
635 0.3398
636 0.34
637 0.3394
638 0.3445
639 0.3446
640 0.338
641 0.3357
642 0.3346
643 0.3384
644 0.3376
645 0.3384
646 0.3358
647 0.3365
648 0.3392
649 0.3386
650 0.3288
651 0.3408
652 0.3428
653 0.3382
654 0.3357
655 0.3307
656 0.3092
657 0.2843
658 0.3149
659 0.3304
660 0.3318
661 0.3349
662 0.3371
663 0.3363
664 0.3325
665 0.3337
666 0.3348
667 0.3331
668 0.3325
669 0.3349
670 0.3343
671 0.3333
672 0.332
673 0.3312
674 0.3308
675 0.3304
676 0.3301
677 0.3298
678 0.3296
679 0.3294
680 0.3292
681 0.3291
682 0.329
683 0.3289
684 0.3289
685 0.3289
686 0.329
687 0.329
688 0.3292
689 0.3299
690 0.3318
691 0.3326
692 0.3311
693 0.3301
694 0.3309
695 0.3292
696 0.3291
697 0.3303
698 0.326
699 0.3302
700 0.3313
701 0.3269
702 0.325
703 0.3266
704 0.3283
705 0.3319
706 0.3299
707 0.3261
708 0.3267
709 0.3239
710 0.3219
711 0.3234
712 0.3191
713 0.3181
714 0.3189
715 0.3185
716 0.3174
717 0.319
718 0.3188
719 0.3148
720 0.3151
721 0.3159
722 0.3162
723 0.3159
724 0.3174
725 0.3168
726 0.3143
727 0.3153
728 0.3149
729 0.3092
730 0.308
731 0.3139
732 0.3133
733 0.3133
734 0.3135
735 0.3137
736 0.3106
737 0.3098
738 0.3095
739 0.3027
740 0.3033
741 0.3018
742 0.2997
743 0.3044
744 0.309
745 0.306
746 0.3094
747 0.3083
748 0.3096
749 0.3079
750 0.3046
