# Top-of-atmosphere (TOA) lunar irradiance from Miller and Turner (2009)
# First column wavelength (nm), second column TOA irradiance# Lunar phase angle: 105
# Irradiance units: mW/m^2-micrometer

300 0.09152
301 0.06805
302 0.08569
303 0.08188
304 0.1158
305 0.1079
306 0.1101
307 0.1019
308 0.1185
309 0.1195
310 0.09123
311 0.1212
312 0.1438
313 0.1249
314 0.1355
315 0.1245
316 0.1282
317 0.1172
318 0.1632
319 0.1255
320 0.1383
321 0.1709
322 0.1356
323 0.1421
324 0.1325
325 0.1588
326 0.1779
327 0.2028
328 0.1969
329 0.183
330 0.225
331 0.2077
332 0.2057
333 0.1996
334 0.1913
335 0.2046
336 0.2086
337 0.1651
338 0.1813
339 0.1946
340 0.2027
341 0.2239
342 0.1963
343 0.2184
344 0.2196
345 0.1584
346 0.2162
347 0.2007
348 0.1991
349 0.2076
350 0.1872
351 0.2473
352 0.2207
353 0.1977
354 0.2386
355 0.254
356 0.2381
357 0.2129
358 0.1934
359 0.1444
360 0.2471
361 0.2331
362 0.2066
363 0.2362
364 0.2231
365 0.2408
366 0.2764
367 0.2943
368 0.2838
369 0.2532
370 0.298
371 0.2642
372 0.3057
373 0.2526
374 0.2181
375 0.2225
376 0.2675
377 0.2626
378 0.3165
379 0.3398
380 0.2598
381 0.3043
382 0.2766
383 0.1984
384 0.1654
385 0.2399
386 0.2525
387 0.2557
388 0.2498
389 0.2403
390 0.3073
391 0.3145
392 0.3662
393 0.2769
394 0.1206
395 0.2793
396 0.3614
397 0.1921
398 0.216
399 0.4118
400 0.443
401 0.4451
402 0.4843
403 0.4919
404 0.4819
405 0.471
406 0.4579
407 0.446
408 0.4523
409 0.4587
410 0.4627
411 0.4287
412 0.4462
413 0.4639
414 0.4816
415 0.4835
416 0.4848
417 0.4911
418 0.4814
419 0.4812
420 0.4817
421 0.4936
422 0.5032
423 0.486
424 0.4802
425 0.492
426 0.4886
427 0.4867
428 0.4687
429 0.4685
430 0.4253
431 0.3552
432 0.4402
433 0.4866
434 0.4804
435 0.4705
436 0.5059
437 0.5345
438 0.5182
439 0.4983
440 0.5193
441 0.5421
442 0.5629
443 0.5804
444 0.5822
445 0.583
446 0.5734
447 0.57
448 0.6037
449 0.6114
450 0.6179
451 0.6459
452 0.6492
453 0.6191
454 0.6036
455 0.6316
456 0.6363
457 0.654
458 0.6546
459 0.6389
460 0.6353
461 0.6456
462 0.6562
463 0.6628
464 0.6558
465 0.6417
466 0.6421
467 0.6375
468 0.6345
469 0.6462
470 0.6419
471 0.633
472 0.6491
473 0.6695
474 0.6612
475 0.6762
476 0.6762
477 0.6675
478 0.6854
479 0.6856
480 0.6856
481 0.6827
482 0.6884
483 0.6825
484 0.6742
485 0.6667
486 0.607
487 0.5737
488 0.6215
489 0.6413
490 0.668
491 0.6781
492 0.6549
493 0.6538
494 0.6622
495 0.6786
496 0.6794
497 0.6774
498 0.6726
499 0.662
500 0.6615
501 0.6514
502 0.6389
503 0.653
504 0.6659
505 0.6638
506 0.6888
507 0.7
508 0.6903
509 0.6806
510 0.6703
511 0.6635
512 0.6772
513 0.6704
514 0.6548
515 0.647
516 0.6574
517 0.6126
518 0.5765
519 0.5989
520 0.6416
521 0.654
522 0.6666
523 0.6538
524 0.6659
525 0.6867
526 0.6797
527 0.6228
528 0.6382
529 0.6798
530 0.6871
531 0.6976
532 0.6996
533 0.6924
534 0.6833
535 0.686
536 0.7069
537 0.6915
538 0.6921
539 0.6973
540 0.6822
541 0.6692
542 0.6844
543 0.6929
544 0.6994
545 0.7062
546 0.7085
547 0.7093
548 0.7016
549 0.7056
550 0.7146
551 0.7116
552 0.7148
553 0.7143
554 0.7128
555 0.7207
556 0.7178
557 0.7036
558 0.6957
559 0.6873
560 0.6786
561 0.6958
562 0.7027
563 0.6953
564 0.6993
565 0.7018
566 0.6962
567 0.6972
568 0.7102
569 0.7051
570 0.7039
571 0.6975
572 0.6992
573 0.727
574 0.7312
575 0.7256
576 0.7155
577 0.7191
578 0.7211
579 0.7119
580 0.718
581 0.7251
582 0.7292
583 0.7372
584 0.7385
585 0.7337
586 0.7212
587 0.7204
588 0.731
589 0.7036
590 0.6743
591 0.7074
592 0.7248
593 0.727
594 0.7266
595 0.7296
596 0.727
597 0.7327
598 0.7325
599 0.7264
600 0.7287
601 0.7249
602 0.717
603 0.7208
604 0.7347
605 0.7381
606 0.7347
607 0.7326
608 0.7304
609 0.7241
610 0.7209
611 0.7218
612 0.7237
613 0.721
614 0.7126
615 0.7128
616 0.7078
617 0.6952
618 0.7067
619 0.718
620 0.7231
621 0.7303
622 0.726
623 0.7221
624 0.7187
625 0.7129
626 0.711
627 0.7257
628 0.7352
629 0.7363
630 0.7285
631 0.7257
632 0.716
633 0.7255
634 0.7221
635 0.7252
636 0.7256
637 0.7243
638 0.7349
639 0.7352
640 0.7211
641 0.7161
642 0.7137
643 0.7219
644 0.7201
645 0.7217
646 0.7161
647 0.7177
648 0.7234
649 0.7219
650 0.7011
651 0.7265
652 0.7309
653 0.7209
654 0.7155
655 0.7049
656 0.6589
657 0.606
658 0.6711
659 0.7041
660 0.7071
661 0.7137
662 0.7183
663 0.7164
664 0.7084
665 0.7108
666 0.7131
667 0.7096
668 0.7082
669 0.7133
670 0.7119
671 0.7097
672 0.7069
673 0.7052
674 0.7043
675 0.7035
676 0.7028
677 0.7021
678 0.7016
679 0.7011
680 0.7006
681 0.7003
682 0.7001
683 0.6999
684 0.6998
685 0.6998
686 0.6999
687 0.7
688 0.7002
689 0.7018
690 0.7058
691 0.7074
692 0.7042
693 0.7021
694 0.7036
695 0.7001
696 0.6998
697 0.7023
698 0.6931
699 0.7019
700 0.7042
701 0.695
702 0.6908
703 0.6941
704 0.6978
705 0.7053
706 0.7011
707 0.693
708 0.6941
709 0.6882
710 0.684
711 0.687
712 0.6779
713 0.6757
714 0.6774
715 0.6764
716 0.6742
717 0.6774
718 0.677
719 0.6685
720 0.6691
721 0.6706
722 0.6712
723 0.6707
724 0.6739
725 0.6725
726 0.6671
727 0.6692
728 0.6682
729 0.6562
730 0.6537
731 0.6661
732 0.6648
733 0.6646
734 0.665
735 0.6655
736 0.6588
737 0.6571
738 0.6566
739 0.6421
740 0.6433
741 0.64
742 0.6355
743 0.6454
744 0.6551
745 0.6487
746 0.6559
747 0.6537
748 0.6562
749 0.6527
750 0.6456
