# Top-of-atmosphere (TOA) lunar irradiance from Miller and Turner (2009)
# First column wavelength (nm), second column TOA irradiance# Lunar phase angle: 19
# Irradiance units: mW/m^2-micrometer

300 0.0008407
301 0.0006255
302 0.000788
303 0.0007533
304 0.001066
305 0.0009933
306 0.001015
307 0.000939
308 0.001093
309 0.001103
310 0.0008423
311 0.00112
312 0.001329
313 0.001155
314 0.001254
315 0.001152
316 0.001187
317 0.001086
318 0.001513
319 0.001164
320 0.001283
321 0.001586
322 0.001259
323 0.00132
324 0.001232
325 0.001477
326 0.001655
327 0.001888
328 0.001834
329 0.001706
330 0.002098
331 0.001938
332 0.00192
333 0.001864
334 0.001787
335 0.001913
336 0.001951
337 0.001545
338 0.001697
339 0.001823
340 0.0019
341 0.002099
342 0.001842
343 0.00205
344 0.002062
345 0.001488
346 0.002032
347 0.001887
348 0.001874
349 0.001955
350 0.001763
351 0.002331
352 0.002082
353 0.001865
354 0.002253
355 0.002398
356 0.00225
357 0.002013
358 0.001829
359 0.001366
360 0.002339
361 0.002208
362 0.001958
363 0.00224
364 0.002116
365 0.002285
366 0.002625
367 0.002796
368 0.002698
369 0.002408
370 0.002836
371 0.002516
372 0.002912
373 0.002407
374 0.002079
375 0.002123
376 0.002553
377 0.002507
378 0.003023
379 0.003248
380 0.002485
381 0.002911
382 0.002648
383 0.001901
384 0.001585
385 0.0023
386 0.002422
387 0.002454
388 0.002399
389 0.002308
390 0.002953
391 0.003024
392 0.003523
393 0.002666
394 0.001162
395 0.002692
396 0.003484
397 0.001853
398 0.002085
399 0.003976
400 0.004279
401 0.004301
402 0.004683
403 0.004759
404 0.004664
405 0.004561
406 0.004436
407 0.004323
408 0.004387
409 0.004451
410 0.004492
411 0.004164
412 0.004336
413 0.00451
414 0.004685
415 0.004706
416 0.00472
417 0.004784
418 0.004692
419 0.004692
420 0.0047
421 0.004818
422 0.004914
423 0.004749
424 0.004695
425 0.004812
426 0.004782
427 0.004765
428 0.004591
429 0.004592
430 0.00417
431 0.003485
432 0.004321
433 0.004779
434 0.00472
435 0.004625
436 0.004976
437 0.005259
438 0.005102
439 0.004908
440 0.005118
441 0.005345
442 0.005553
443 0.005728
444 0.00575
445 0.00576
446 0.005668
447 0.005637
448 0.005973
449 0.006053
450 0.00612
451 0.006401
452 0.006437
453 0.006141
454 0.005991
455 0.006272
456 0.006321
457 0.0065
458 0.00651
459 0.006356
460 0.006324
461 0.00643
462 0.006538
463 0.006608
464 0.006542
465 0.006404
466 0.006411
467 0.006368
468 0.006341
469 0.006462
470 0.006422
471 0.006336
472 0.0065
473 0.006708
474 0.006629
475 0.006782
476 0.006786
477 0.006701
478 0.006885
479 0.006891
480 0.006894
481 0.006868
482 0.006928
483 0.006873
484 0.006793
485 0.00672
486 0.006121
487 0.005789
488 0.006274
489 0.006478
490 0.006751
491 0.006856
492 0.006624
493 0.006617
494 0.006705
495 0.006875
496 0.006886
497 0.00687
498 0.006824
499 0.00672
500 0.006718
501 0.006619
502 0.006496
503 0.006642
504 0.006777
505 0.006758
506 0.007016
507 0.007134
508 0.007039
509 0.006943
510 0.006842
511 0.006776
512 0.006919
513 0.006854
514 0.006697
515 0.006621
516 0.00673
517 0.006275
518 0.005909
519 0.006141
520 0.006582
521 0.006712
522 0.006845
523 0.006717
524 0.006845
525 0.007062
526 0.006994
527 0.006412
528 0.006574
529 0.007005
530 0.007084
531 0.007196
532 0.00722
533 0.007149
534 0.007059
535 0.00709
536 0.00731
537 0.007155
538 0.007164
539 0.007222
540 0.007069
541 0.006938
542 0.007099
543 0.007191
544 0.007262
545 0.007336
546 0.007364
547 0.007375
548 0.007299
549 0.007345
550 0.007443
551 0.007415
552 0.007452
553 0.00745
554 0.007439
555 0.007525
556 0.007498
557 0.007354
558 0.007274
559 0.00719
560 0.007103
561 0.007286
562 0.007363
563 0.007288
564 0.007334
565 0.007364
566 0.007309
567 0.007323
568 0.007463
569 0.007414
570 0.007405
571 0.007341
572 0.007363
573 0.007659
574 0.007707
575 0.007652
576 0.00755
577 0.007591
578 0.007616
579 0.007523
580 0.007591
581 0.00767
582 0.007717
583 0.007805
584 0.007823
585 0.007777
586 0.007648
587 0.007643
588 0.007759
589 0.007472
590 0.007164
591 0.00752
592 0.007709
593 0.007737
594 0.007736
595 0.007772
596 0.007748
597 0.007812
598 0.007814
599 0.007753
600 0.007782
601 0.007745
602 0.007665
603 0.007709
604 0.007862
605 0.007902
606 0.007869
607 0.007851
608 0.007831
609 0.007768
610 0.007737
611 0.007751
612 0.007775
613 0.00775
614 0.007664
615 0.007669
616 0.007619
617 0.007488
618 0.007616
619 0.00774
620 0.0078
621 0.007882
622 0.007838
623 0.007801
624 0.007768
625 0.007709
626 0.007693
627 0.007855
628 0.007963
629 0.007978
630 0.007897
631 0.007871
632 0.007769
633 0.007877
634 0.007844
635 0.007882
636 0.00789
637 0.00788
638 0.008
639 0.008006
640 0.007857
641 0.007806
642 0.007784
643 0.007877
644 0.007862
645 0.007883
646 0.007826
647 0.007847
648 0.007913
649 0.007901
650 0.007677
651 0.00796
652 0.008011
653 0.007906
654 0.007851
655 0.007738
656 0.007237
657 0.006659
658 0.007379
659 0.007745
660 0.007782
661 0.007858
662 0.007913
663 0.007896
664 0.007811
665 0.007842
666 0.007872
667 0.007837
668 0.007826
669 0.007885
670 0.007874
671 0.007854
672 0.007826
673 0.007812
674 0.007806
675 0.007801
676 0.007797
677 0.007793
678 0.007791
679 0.007789
680 0.007789
681 0.007789
682 0.00779
683 0.007792
684 0.007795
685 0.007799
686 0.007804
687 0.007809
688 0.007816
689 0.007836
690 0.007886
691 0.007907
692 0.007875
693 0.007855
694 0.007877
695 0.007841
696 0.007842
697 0.007874
698 0.007775
699 0.007878
700 0.007907
701 0.007807
702 0.007765
703 0.007805
704 0.007851
705 0.007939
706 0.007896
707 0.007808
708 0.007825
709 0.007763
710 0.007719
711 0.007757
712 0.007658
713 0.007636
714 0.00766
715 0.007652
716 0.007631
717 0.007672
718 0.00767
719 0.007578
720 0.007588
721 0.00761
722 0.007621
723 0.007619
724 0.007658
725 0.007646
726 0.007589
727 0.007617
728 0.007609
729 0.007476
730 0.007451
731 0.007596
732 0.007586
733 0.007587
734 0.007596
735 0.007605
736 0.007532
737 0.007517
738 0.007514
739 0.007352
740 0.00737
741 0.007335
742 0.007288
743 0.007405
744 0.007521
745 0.007451
746 0.007537
747 0.007515
748 0.007548
749 0.007511
750 0.007433
