# Top-of-atmosphere (TOA) lunar irradiance from Miller and Turner (2009)
# First column wavelength (nm), second column TOA irradiance# Lunar phase angle: 13
# Irradiance units: mW/m^2-micrometer

300 0.0005437
301 0.0004044
302 0.0005095
303 0.0004871
304 0.0006892
305 0.0006422
306 0.0006559
307 0.000607
308 0.0007062
309 0.0007126
310 0.0005444
311 0.0007236
312 0.0008588
313 0.0007462
314 0.0008099
315 0.0007446
316 0.000767
317 0.0007014
318 0.0009771
319 0.0007519
320 0.000829
321 0.001025
322 0.0008132
323 0.0008527
324 0.0007955
325 0.0009539
326 0.001069
327 0.001219
328 0.001184
329 0.001102
330 0.001355
331 0.001251
332 0.00124
333 0.001203
334 0.001153
335 0.001234
336 0.001259
337 0.000997
338 0.001095
339 0.001176
340 0.001226
341 0.001354
342 0.001188
343 0.001323
344 0.00133
345 0.00096
346 0.001311
347 0.001217
348 0.001208
349 0.00126
350 0.001137
351 0.001503
352 0.001342
353 0.001203
354 0.001452
355 0.001546
356 0.00145
357 0.001297
358 0.001179
359 0.0008806
360 0.001507
361 0.001423
362 0.001262
363 0.001443
364 0.001363
365 0.001472
366 0.001691
367 0.001801
368 0.001738
369 0.001551
370 0.001826
371 0.00162
372 0.001875
373 0.00155
374 0.001339
375 0.001367
376 0.001644
377 0.001614
378 0.001946
379 0.002091
380 0.001599
381 0.001874
382 0.001704
383 0.001223
384 0.00102
385 0.00148
386 0.001558
387 0.001579
388 0.001543
389 0.001485
390 0.0019
391 0.001945
392 0.002266
393 0.001715
394 0.0007473
395 0.001731
396 0.00224
397 0.001192
398 0.00134
399 0.002556
400 0.002751
401 0.002765
402 0.00301
403 0.003059
404 0.002998
405 0.002931
406 0.002851
407 0.002778
408 0.002819
409 0.00286
410 0.002886
411 0.002675
412 0.002786
413 0.002897
414 0.003009
415 0.003023
416 0.003032
417 0.003073
418 0.003013
419 0.003014
420 0.003018
421 0.003094
422 0.003156
423 0.003049
424 0.003014
425 0.00309
426 0.00307
427 0.003059
428 0.002947
429 0.002947
430 0.002677
431 0.002236
432 0.002773
433 0.003067
434 0.003029
435 0.002968
436 0.003192
437 0.003374
438 0.003273
439 0.003148
440 0.003283
441 0.003429
442 0.003562
443 0.003674
444 0.003687
445 0.003693
446 0.003635
447 0.003614
448 0.00383
449 0.00388
450 0.003923
451 0.004103
452 0.004126
453 0.003936
454 0.003839
455 0.00402
456 0.004051
457 0.004165
458 0.004171
459 0.004073
460 0.004052
461 0.004119
462 0.004189
463 0.004233
464 0.00419
465 0.004102
466 0.004106
467 0.004078
468 0.004061
469 0.004138
470 0.004112
471 0.004057
472 0.004162
473 0.004295
474 0.004244
475 0.004341
476 0.004344
477 0.004289
478 0.004407
479 0.00441
480 0.004412
481 0.004395
482 0.004433
483 0.004398
484 0.004346
485 0.004299
486 0.003916
487 0.003703
488 0.004013
489 0.004143
490 0.004318
491 0.004385
492 0.004236
493 0.004231
494 0.004287
495 0.004396
496 0.004403
497 0.004392
498 0.004363
499 0.004296
500 0.004294
501 0.004231
502 0.004152
503 0.004245
504 0.004331
505 0.004319
506 0.004483
507 0.004559
508 0.004497
509 0.004436
510 0.004371
511 0.004329
512 0.00442
513 0.004378
514 0.004277
515 0.004229
516 0.004298
517 0.004007
518 0.003773
519 0.003921
520 0.004202
521 0.004286
522 0.00437
523 0.004288
524 0.004369
525 0.004508
526 0.004464
527 0.004092
528 0.004195
529 0.00447
530 0.004521
531 0.004591
532 0.004607
533 0.004561
534 0.004503
535 0.004523
536 0.004663
537 0.004564
538 0.00457
539 0.004606
540 0.004508
541 0.004424
542 0.004527
543 0.004585
544 0.00463
545 0.004677
546 0.004695
547 0.004702
548 0.004653
549 0.004682
550 0.004744
551 0.004726
552 0.004749
553 0.004748
554 0.00474
555 0.004795
556 0.004777
557 0.004685
558 0.004634
559 0.00458
560 0.004524
561 0.004641
562 0.00469
563 0.004642
564 0.004671
565 0.004689
566 0.004654
567 0.004663
568 0.004752
569 0.00472
570 0.004714
571 0.004673
572 0.004687
573 0.004875
574 0.004905
575 0.00487
576 0.004805
577 0.004831
578 0.004846
579 0.004787
580 0.00483
581 0.00488
582 0.004909
583 0.004965
584 0.004977
585 0.004947
586 0.004864
587 0.004861
588 0.004935
589 0.004752
590 0.004556
591 0.004782
592 0.004901
593 0.004919
594 0.004918
595 0.004941
596 0.004925
597 0.004966
598 0.004967
599 0.004928
600 0.004946
601 0.004922
602 0.004871
603 0.004899
604 0.004995
605 0.005021
606 0.004999
607 0.004988
608 0.004974
609 0.004934
610 0.004914
611 0.004923
612 0.004938
613 0.004921
614 0.004867
615 0.00487
616 0.004838
617 0.004754
618 0.004835
619 0.004914
620 0.004951
621 0.005003
622 0.004975
623 0.004951
624 0.00493
625 0.004892
626 0.004881
627 0.004984
628 0.005052
629 0.005061
630 0.00501
631 0.004993
632 0.004929
633 0.004996
634 0.004975
635 0.004999
636 0.005004
637 0.004997
638 0.005073
639 0.005077
640 0.004982
641 0.004949
642 0.004935
643 0.004994
644 0.004984
645 0.004997
646 0.004961
647 0.004973
648 0.005015
649 0.005007
650 0.004865
651 0.005044
652 0.005076
653 0.005009
654 0.004974
655 0.004902
656 0.004585
657 0.004218
658 0.004674
659 0.004906
660 0.004928
661 0.004976
662 0.005011
663 0.005
664 0.004946
665 0.004965
666 0.004984
667 0.004961
668 0.004954
669 0.004991
670 0.004984
671 0.004971
672 0.004953
673 0.004943
674 0.00494
675 0.004936
676 0.004933
677 0.004931
678 0.004929
679 0.004928
680 0.004927
681 0.004927
682 0.004927
683 0.004928
684 0.00493
685 0.004932
686 0.004935
687 0.004938
688 0.004942
689 0.004955
690 0.004986
691 0.004999
692 0.004978
693 0.004966
694 0.004979
695 0.004956
696 0.004956
697 0.004976
698 0.004913
699 0.004978
700 0.004996
701 0.004933
702 0.004906
703 0.004931
704 0.004959
705 0.005015
706 0.004987
707 0.004932
708 0.004942
709 0.004902
710 0.004874
711 0.004898
712 0.004835
713 0.004821
714 0.004836
715 0.004831
716 0.004817
717 0.004843
718 0.004841
719 0.004783
720 0.004789
721 0.004802
722 0.004809
723 0.004807
724 0.004832
725 0.004824
726 0.004788
727 0.004805
728 0.0048
729 0.004716
730 0.0047
731 0.004791
732 0.004784
733 0.004785
734 0.00479
735 0.004796
736 0.004749
737 0.004739
738 0.004737
739 0.004635
740 0.004646
741 0.004624
742 0.004594
743 0.004667
744 0.00474
745 0.004695
746 0.00475
747 0.004735
748 0.004756
749 0.004733
750 0.004683
