# Top-of-atmosphere (TOA) lunar irradiance from Miller and Turner (2009)
# First column wavelength (nm), second column TOA irradiance# Lunar phase angle: 61
# Irradiance units: mW/m^2-micrometer

300 0.0153
301 0.01138
302 0.01433
303 0.0137
304 0.01938
305 0.01805
306 0.01843
307 0.01705
308 0.01984
309 0.02001
310 0.01528
311 0.02031
312 0.0241
313 0.02094
314 0.02272
315 0.02088
316 0.0215
317 0.01966
318 0.02738
319 0.02106
320 0.02322
321 0.02869
322 0.02277
323 0.02387
324 0.02226
325 0.02668
326 0.0299
327 0.03409
328 0.0331
329 0.03079
330 0.03785
331 0.03495
332 0.03462
333 0.0336
334 0.0322
335 0.03445
336 0.03513
337 0.02781
338 0.03054
339 0.03279
340 0.03416
341 0.03774
342 0.0331
343 0.03684
344 0.03704
345 0.02673
346 0.03649
347 0.03387
348 0.03361
349 0.03506
350 0.03161
351 0.04179
352 0.0373
353 0.03342
354 0.04034
355 0.04294
356 0.04027
357 0.03601
358 0.03272
359 0.02444
360 0.04182
361 0.03946
362 0.03498
363 0.04001
364 0.03779
365 0.04079
366 0.04684
367 0.04987
368 0.04811
369 0.04294
370 0.05054
371 0.04482
372 0.05187
373 0.04286
374 0.03702
375 0.03778
376 0.04542
377 0.04459
378 0.05376
379 0.05774
380 0.04416
381 0.05172
382 0.04703
383 0.03374
384 0.02813
385 0.04081
386 0.04296
387 0.04352
388 0.04252
389 0.04091
390 0.05233
391 0.05356
392 0.06238
393 0.04719
394 0.02056
395 0.04762
396 0.06162
397 0.03277
398 0.03685
399 0.07025
400 0.07559
401 0.07596
402 0.08267
403 0.08399
404 0.08229
405 0.08045
406 0.07822
407 0.07621
408 0.07731
409 0.07841
410 0.07911
411 0.07332
412 0.07633
413 0.07936
414 0.08241
415 0.08276
416 0.08299
417 0.08408
418 0.08244
419 0.08243
420 0.08253
421 0.08459
422 0.08625
423 0.08332
424 0.08234
425 0.08438
426 0.08382
427 0.0835
428 0.08044
429 0.08042
430 0.07302
431 0.06099
432 0.07561
433 0.08359
434 0.08254
435 0.08086
436 0.08696
437 0.09189
438 0.08911
439 0.0857
440 0.08933
441 0.09328
442 0.09688
443 0.0999
444 0.1002
445 0.1004
446 0.09877
447 0.09819
448 0.104
449 0.1054
450 0.1065
451 0.1114
452 0.112
453 0.1068
454 0.1041
455 0.109
456 0.1098
457 0.1129
458 0.113
459 0.1103
460 0.1097
461 0.1115
462 0.1134
463 0.1146
464 0.1134
465 0.111
466 0.1111
467 0.1103
468 0.1098
469 0.1118
470 0.1111
471 0.1096
472 0.1124
473 0.1159
474 0.1145
475 0.1172
476 0.1172
477 0.1157
478 0.1188
479 0.1189
480 0.1189
481 0.1184
482 0.1194
483 0.1185
484 0.117
485 0.1157
486 0.1054
487 0.09965
488 0.108
489 0.1114
490 0.1161
491 0.1179
492 0.1139
493 0.1137
494 0.1152
495 0.1181
496 0.1182
497 0.1179
498 0.1171
499 0.1153
500 0.1152
501 0.1135
502 0.1113
503 0.1138
504 0.1161
505 0.1157
506 0.1201
507 0.1221
508 0.1204
509 0.1187
510 0.117
511 0.1158
512 0.1182
513 0.1171
514 0.1144
515 0.113
516 0.1149
517 0.107
518 0.1008
519 0.1047
520 0.1122
521 0.1144
522 0.1166
523 0.1144
524 0.1165
525 0.1202
526 0.119
527 0.1091
528 0.1118
529 0.1191
530 0.1204
531 0.1222
532 0.1226
533 0.1214
534 0.1198
535 0.1203
536 0.124
537 0.1213
538 0.1215
539 0.1224
540 0.1198
541 0.1175
542 0.1202
543 0.1217
544 0.1229
545 0.1241
546 0.1245
547 0.1247
548 0.1234
549 0.1241
550 0.1257
551 0.1252
552 0.1258
553 0.1257
554 0.1255
555 0.1269
556 0.1264
557 0.124
558 0.1226
559 0.1211
560 0.1196
561 0.1227
562 0.1239
563 0.1226
564 0.1234
565 0.1238
566 0.1229
567 0.1231
568 0.1254
569 0.1245
570 0.1243
571 0.1232
572 0.1236
573 0.1285
574 0.1293
575 0.1283
576 0.1265
577 0.1272
578 0.1276
579 0.126
580 0.1271
581 0.1284
582 0.1291
583 0.1306
584 0.1308
585 0.13
586 0.1278
587 0.1277
588 0.1296
589 0.1248
590 0.1196
591 0.1255
592 0.1286
593 0.129
594 0.129
595 0.1295
596 0.1291
597 0.1301
598 0.1301
599 0.1291
600 0.1295
601 0.1289
602 0.1275
603 0.1282
604 0.1307
605 0.1313
606 0.1307
607 0.1304
608 0.13
609 0.1289
610 0.1284
611 0.1286
612 0.1289
613 0.1285
614 0.127
615 0.1271
616 0.1262
617 0.124
618 0.1261
619 0.1281
620 0.129
621 0.1304
622 0.1296
623 0.1289
624 0.1284
625 0.1274
626 0.127
627 0.1297
628 0.1314
629 0.1316
630 0.1303
631 0.1298
632 0.1281
633 0.1298
634 0.1292
635 0.1298
636 0.1299
637 0.1297
638 0.1316
639 0.1317
640 0.1292
641 0.1283
642 0.1279
643 0.1294
644 0.1291
645 0.1295
646 0.1285
647 0.1288
648 0.1298
649 0.1296
650 0.1259
651 0.1305
652 0.1313
653 0.1295
654 0.1286
655 0.1267
656 0.1185
657 0.109
658 0.1207
659 0.1267
660 0.1272
661 0.1284
662 0.1293
663 0.129
664 0.1276
665 0.128
666 0.1285
667 0.1279
668 0.1276
669 0.1286
670 0.1283
671 0.128
672 0.1275
673 0.1272
674 0.1271
675 0.127
676 0.1269
677 0.1268
678 0.1267
679 0.1266
680 0.1266
681 0.1265
682 0.1265
683 0.1265
684 0.1265
685 0.1265
686 0.1266
687 0.1266
688 0.1267
689 0.127
690 0.1278
691 0.1281
692 0.1275
693 0.1272
694 0.1275
695 0.1269
696 0.1268
697 0.1273
698 0.1257
699 0.1273
700 0.1277
701 0.1261
702 0.1254
703 0.126
704 0.1267
705 0.1281
706 0.1273
707 0.1259
708 0.1261
709 0.1251
710 0.1243
711 0.1249
712 0.1233
713 0.1229
714 0.1232
715 0.1231
716 0.1227
717 0.1233
718 0.1232
719 0.1217
720 0.1219
721 0.1222
722 0.1223
723 0.1222
724 0.1228
725 0.1226
726 0.1216
727 0.1221
728 0.1219
729 0.1197
730 0.1193
731 0.1216
732 0.1214
733 0.1214
734 0.1215
735 0.1216
736 0.1204
737 0.1201
738 0.12
739 0.1174
740 0.1176
741 0.1171
742 0.1163
743 0.1181
744 0.1199
745 0.1188
746 0.1201
747 0.1197
748 0.1202
749 0.1196
750 0.1183
