# Top-of-atmosphere (TOA) lunar irradiance from Miller and Turner (2009)
# First column wavelength (nm), second column TOA irradiance# Lunar phase angle: 81
# Irradiance units: mW/m^2-micrometer

300 0.04046
301 0.03009
302 0.03789
303 0.0362
304 0.05121
305 0.0477
306 0.0487
307 0.04505
308 0.0524
309 0.05285
310 0.04036
311 0.05362
312 0.06362
313 0.05526
314 0.05995
315 0.05509
316 0.05673
317 0.05186
318 0.07222
319 0.05555
320 0.06123
321 0.07564
322 0.06001
323 0.0629
324 0.05866
325 0.07031
326 0.07876
327 0.0898
328 0.08719
329 0.08107
330 0.09966
331 0.09202
332 0.09113
333 0.08843
334 0.08474
335 0.09065
336 0.09241
337 0.07316
338 0.08033
339 0.08624
340 0.08982
341 0.09922
342 0.08701
343 0.09682
344 0.09734
345 0.07023
346 0.09586
347 0.08898
348 0.08828
349 0.09206
350 0.083
351 0.1097
352 0.09791
353 0.08771
354 0.1059
355 0.1127
356 0.1057
357 0.09446
358 0.08581
359 0.06408
360 0.1097
361 0.1034
362 0.09169
363 0.1048
364 0.09903
365 0.1069
366 0.1227
367 0.1306
368 0.126
369 0.1124
370 0.1323
371 0.1173
372 0.1358
373 0.1122
374 0.09687
375 0.09885
376 0.1188
377 0.1166
378 0.1406
379 0.151
380 0.1155
381 0.1352
382 0.1229
383 0.08819
384 0.07351
385 0.1066
386 0.1122
387 0.1137
388 0.1111
389 0.1068
390 0.1366
391 0.1398
392 0.1628
393 0.1232
394 0.05365
395 0.1242
396 0.1608
397 0.08547
398 0.0961
399 0.1832
400 0.1971
401 0.198
402 0.2155
403 0.2189
404 0.2144
405 0.2096
406 0.2038
407 0.1985
408 0.2013
409 0.2042
410 0.206
411 0.1909
412 0.1987
413 0.2065
414 0.2144
415 0.2153
416 0.2159
417 0.2187
418 0.2144
419 0.2143
420 0.2146
421 0.2199
422 0.2242
423 0.2165
424 0.214
425 0.2192
426 0.2178
427 0.2169
428 0.2089
429 0.2088
430 0.1896
431 0.1583
432 0.1962
433 0.2169
434 0.2142
435 0.2098
436 0.2256
437 0.2383
438 0.2311
439 0.2222
440 0.2316
441 0.2418
442 0.2511
443 0.2589
444 0.2598
445 0.2601
446 0.2559
447 0.2543
448 0.2694
449 0.2729
450 0.2758
451 0.2883
452 0.2898
453 0.2764
454 0.2695
455 0.282
456 0.2841
457 0.292
458 0.2923
459 0.2853
460 0.2837
461 0.2883
462 0.2931
463 0.2961
464 0.293
465 0.2867
466 0.2869
467 0.2848
468 0.2835
469 0.2888
470 0.2868
471 0.2829
472 0.2901
473 0.2992
474 0.2956
475 0.3023
476 0.3023
477 0.2984
478 0.3064
479 0.3066
480 0.3066
481 0.3053
482 0.3078
483 0.3053
484 0.3016
485 0.2982
486 0.2715
487 0.2567
488 0.278
489 0.2869
490 0.2989
491 0.3034
492 0.293
493 0.2926
494 0.2964
495 0.3037
496 0.3041
497 0.3032
498 0.3011
499 0.2964
500 0.2962
501 0.2917
502 0.2861
503 0.2924
504 0.2982
505 0.2973
506 0.3085
507 0.3135
508 0.3092
509 0.3049
510 0.3003
511 0.2973
512 0.3034
513 0.3004
514 0.2934
515 0.29
516 0.2946
517 0.2746
518 0.2584
519 0.2684
520 0.2876
521 0.2932
522 0.2989
523 0.2931
524 0.2986
525 0.3079
526 0.3048
527 0.2793
528 0.2862
529 0.3049
530 0.3082
531 0.3129
532 0.3138
533 0.3106
534 0.3066
535 0.3078
536 0.3172
537 0.3103
538 0.3106
539 0.313
540 0.3062
541 0.3004
542 0.3072
543 0.3111
544 0.314
545 0.3171
546 0.3181
547 0.3185
548 0.3151
549 0.3169
550 0.321
551 0.3197
552 0.3211
553 0.3209
554 0.3202
555 0.3238
556 0.3225
557 0.3162
558 0.3126
559 0.3089
560 0.305
561 0.3127
562 0.3159
563 0.3125
564 0.3144
565 0.3155
566 0.313
567 0.3135
568 0.3193
569 0.3171
570 0.3165
571 0.3137
572 0.3145
573 0.327
574 0.3289
575 0.3264
576 0.3219
577 0.3235
578 0.3245
579 0.3203
580 0.3231
581 0.3263
582 0.3282
583 0.3318
584 0.3324
585 0.3303
586 0.3247
587 0.3243
588 0.3291
589 0.3168
590 0.3036
591 0.3186
592 0.3264
593 0.3274
594 0.3273
595 0.3286
596 0.3275
597 0.33
598 0.33
599 0.3273
600 0.3283
601 0.3266
602 0.3231
603 0.3248
604 0.3311
605 0.3327
606 0.3311
607 0.3302
608 0.3292
609 0.3265
610 0.325
611 0.3255
612 0.3263
613 0.3251
614 0.3214
615 0.3215
616 0.3192
617 0.3136
618 0.3188
619 0.3239
620 0.3262
621 0.3295
622 0.3275
623 0.3258
624 0.3243
625 0.3217
626 0.3209
627 0.3275
628 0.3319
629 0.3323
630 0.3289
631 0.3276
632 0.3232
633 0.3276
634 0.3261
635 0.3275
636 0.3277
637 0.3271
638 0.3319
639 0.3321
640 0.3257
641 0.3235
642 0.3224
643 0.3262
644 0.3254
645 0.3261
646 0.3236
647 0.3243
648 0.3269
649 0.3263
650 0.3169
651 0.3284
652 0.3304
653 0.3259
654 0.3235
655 0.3187
656 0.298
657 0.274
658 0.3035
659 0.3185
660 0.3198
661 0.3228
662 0.3249
663 0.3241
664 0.3205
665 0.3216
666 0.3227
667 0.3211
668 0.3205
669 0.3228
670 0.3222
671 0.3212
672 0.3199
673 0.3192
674 0.3188
675 0.3185
676 0.3182
677 0.3179
678 0.3177
679 0.3175
680 0.3173
681 0.3172
682 0.3171
683 0.317
684 0.317
685 0.317
686 0.3171
687 0.3171
688 0.3173
689 0.318
690 0.3198
691 0.3206
692 0.3191
693 0.3182
694 0.3189
695 0.3173
696 0.3172
697 0.3184
698 0.3142
699 0.3183
700 0.3193
701 0.3151
702 0.3133
703 0.3148
704 0.3165
705 0.3199
706 0.318
707 0.3144
708 0.3149
709 0.3122
710 0.3103
711 0.3117
712 0.3076
713 0.3066
714 0.3074
715 0.307
716 0.306
717 0.3075
718 0.3073
719 0.3035
720 0.3038
721 0.3045
722 0.3048
723 0.3046
724 0.306
725 0.3054
726 0.303
727 0.304
728 0.3035
729 0.2981
730 0.297
731 0.3026
732 0.3021
733 0.302
734 0.3022
735 0.3024
736 0.2994
737 0.2987
738 0.2984
739 0.2919
740 0.2924
741 0.2909
742 0.2889
743 0.2934
744 0.2979
745 0.295
746 0.2983
747 0.2973
748 0.2985
749 0.2969
750 0.2937
