# Top-of-atmosphere (TOA) lunar irradiance from Miller and Turner (2009) by 10 nm increments
# First column wavelength (nm), second column TOA irradiance# Phase angle = 32
# Units = mW/m^2-micrometer

300 0.00222
310 0.002224
320 0.003388
330 0.005538
340 0.005012
350 0.004651
360 0.00617
370 0.007477
380 0.006551
390 0.007784
400 0.01128
410 0.01183
420 0.01238
430 0.01098
440 0.01347
450 0.01611
460 0.01664
470 0.0169
480 0.01813
490 0.01775
500 0.01766
510 0.01799
520 0.0173
530 0.01861
540 0.01857
550 0.01955
560 0.01865
570 0.01944
580 0.01992
590 0.0188
600 0.02041
610 0.02029
620 0.02045
630 0.0207
640 0.02059
650 0.02012
660 0.02039
670 0.02062
680 0.0204
690 0.02065
700 0.0207
710 0.0202
720 0.01985
730 0.01949
740 0.01927
750 0.01943
