# Top-of-atmosphere (TOA) lunar irradiance from Miller and Turner (2009) by 10 nm increments
# First column wavelength (nm), second column TOA irradiance# Phase angle = 63
# Units = mW/m^2-micrometer

300 0.01703
310 0.01701
320 0.02584
330 0.0421
340 0.038
350 0.03515
360 0.0465
370 0.05619
380 0.04908
390 0.05815
400 0.08398
410 0.08788
420 0.09166
430 0.08108
440 0.09918
450 0.1182
460 0.1218
470 0.1233
480 0.1319
490 0.1288
500 0.1278
510 0.1297
520 0.1244
530 0.1335
540 0.1327
550 0.1393
560 0.1325
570 0.1377
580 0.1408
590 0.1324
600 0.1434
610 0.1421
620 0.1428
630 0.1441
640 0.143
650 0.1392
660 0.1407
670 0.1419
680 0.1399
690 0.1412
700 0.1412
710 0.1374
720 0.1346
730 0.1318
740 0.1299
750 0.1306
