# Top-of-atmosphere (TOA) lunar irradiance from Miller and Turner (2009) by 10 nm increments
# First column wavelength (nm), second column TOA irradiance# Phase angle = 66
# Units = mW/m^2-micrometer

300 0.02
310 0.01997
320 0.03032
330 0.0494
340 0.04457
350 0.04122
360 0.05451
370 0.06585
380 0.05751
390 0.06812
400 0.09836
410 0.1029
420 0.1073
430 0.09488
440 0.116
450 0.1383
460 0.1424
470 0.1441
480 0.1542
490 0.1505
500 0.1492
510 0.1515
520 0.1452
530 0.1558
540 0.1549
550 0.1625
560 0.1546
570 0.1606
580 0.1641
590 0.1543
600 0.167
610 0.1655
620 0.1663
630 0.1678
640 0.1664
650 0.162
660 0.1636
670 0.165
680 0.1627
690 0.1641
700 0.164
710 0.1596
720 0.1563
730 0.153
740 0.1508
750 0.1516
