# Top-of-atmosphere (TOA) lunar irradiance from Miller and Turner (2009) by 10 nm increments
# First column wavelength (nm), second column TOA irradiance# Phase angle = 52
# Units = mW/m^2-micrometer

300 0.00874
310 0.008739
320 0.01329
330 0.02168
340 0.01959
350 0.01815
360 0.02403
370 0.02907
380 0.02543
390 0.03016
400 0.04361
410 0.04569
420 0.04771
430 0.04226
440 0.05175
450 0.06176
460 0.06369
470 0.06455
480 0.06916
490 0.06759
500 0.06713
510 0.06824
520 0.06551
530 0.07038
540 0.07008
550 0.07364
560 0.07014
570 0.07298
580 0.07467
590 0.07033
600 0.07624
610 0.07565
620 0.07612
630 0.07692
640 0.07637
650 0.07448
660 0.07534
670 0.07609
680 0.07511
690 0.0759
700 0.07595
710 0.074
720 0.0726
730 0.07115
740 0.07023
750 0.0707
