# Top-of-atmosphere (TOA) lunar irradiance from Miller and Turner (2009) by 10 nm increments
# First column wavelength (nm), second column TOA irradiance# Phase angle = 57
# Units = mW/m^2-micrometer

300 0.01199
310 0.01199
320 0.01822
330 0.02971
340 0.02683
350 0.02483
360 0.03287
370 0.03974
380 0.03474
390 0.04118
400 0.05951
410 0.06231
420 0.06503
430 0.05756
440 0.07045
450 0.08404
460 0.08662
470 0.08773
480 0.09394
490 0.09176
500 0.09108
510 0.09253
520 0.08878
530 0.09532
540 0.09487
550 0.09963
560 0.09484
570 0.09862
580 0.1008
590 0.09493
600 0.1029
610 0.102
620 0.1026
630 0.1036
640 0.1028
650 0.1002
660 0.1013
670 0.1022
680 0.1009
690 0.1019
700 0.1019
710 0.0992
720 0.09727
730 0.09527
740 0.09399
750 0.09456
