# Top-of-atmosphere (TOA) lunar irradiance from Miller and Turner (2009)
# First column wavelength (nm), second column TOA irradiance# Lunar phase angle: 98
# Irradiance units: mW/m^2-micrometer

300 0.07436
301 0.05529
302 0.06963
303 0.06653
304 0.0941
305 0.08764
306 0.08948
307 0.08277
308 0.09626
309 0.09709
310 0.07414
311 0.0985
312 0.1169
313 0.1015
314 0.1101
315 0.1012
316 0.1042
317 0.09523
318 0.1326
319 0.102
320 0.1124
321 0.1389
322 0.1102
323 0.1155
324 0.1077
325 0.1291
326 0.1446
327 0.1648
328 0.16
329 0.1488
330 0.1829
331 0.1688
332 0.1672
333 0.1623
334 0.1555
335 0.1663
336 0.1695
337 0.1342
338 0.1473
339 0.1582
340 0.1647
341 0.182
342 0.1596
343 0.1775
344 0.1785
345 0.1288
346 0.1757
347 0.1631
348 0.1618
349 0.1688
350 0.1521
351 0.2011
352 0.1795
353 0.1608
354 0.194
355 0.2065
356 0.1936
357 0.1731
358 0.1572
359 0.1174
360 0.2009
361 0.1895
362 0.168
363 0.1921
364 0.1814
365 0.1958
366 0.2247
367 0.2392
368 0.2308
369 0.2059
370 0.2423
371 0.2149
372 0.2486
373 0.2054
374 0.1773
375 0.181
376 0.2175
377 0.2135
378 0.2573
379 0.2763
380 0.2113
381 0.2474
382 0.225
383 0.1614
384 0.1345
385 0.1951
386 0.2053
387 0.2079
388 0.2032
389 0.1954
390 0.2499
391 0.2557
392 0.2978
393 0.2252
394 0.09812
395 0.2272
396 0.2939
397 0.1563
398 0.1757
399 0.3349
400 0.3603
401 0.362
402 0.3939
403 0.4001
404 0.3919
405 0.3831
406 0.3724
407 0.3628
408 0.3679
409 0.3731
410 0.3763
411 0.3487
412 0.363
413 0.3773
414 0.3917
415 0.3933
416 0.3943
417 0.3995
418 0.3916
419 0.3914
420 0.3918
421 0.4015
422 0.4093
423 0.3954
424 0.3906
425 0.4003
426 0.3975
427 0.3959
428 0.3813
429 0.3812
430 0.346
431 0.289
432 0.3581
433 0.3959
434 0.3908
435 0.3828
436 0.4116
437 0.4348
438 0.4216
439 0.4054
440 0.4225
441 0.4411
442 0.458
443 0.4722
444 0.4737
445 0.4743
446 0.4666
447 0.4638
448 0.4912
449 0.4975
450 0.5028
451 0.5256
452 0.5283
453 0.5038
454 0.4912
455 0.514
456 0.5178
457 0.5322
458 0.5327
459 0.5199
460 0.517
461 0.5254
462 0.534
463 0.5394
464 0.5337
465 0.5222
466 0.5226
467 0.5188
468 0.5164
469 0.5259
470 0.5224
471 0.5151
472 0.5282
473 0.5449
474 0.5382
475 0.5503
476 0.5504
477 0.5433
478 0.5579
479 0.558
480 0.558
481 0.5557
482 0.5603
483 0.5555
484 0.5488
485 0.5426
486 0.4941
487 0.467
488 0.5059
489 0.522
490 0.5438
491 0.552
492 0.5331
493 0.5322
494 0.539
495 0.5524
496 0.553
497 0.5514
498 0.5475
499 0.5389
500 0.5385
501 0.5303
502 0.5202
503 0.5316
504 0.5421
505 0.5404
506 0.5607
507 0.5699
508 0.562
509 0.5541
510 0.5458
511 0.5402
512 0.5513
513 0.5458
514 0.5331
515 0.5268
516 0.5352
517 0.4988
518 0.4694
519 0.4876
520 0.5224
521 0.5325
522 0.5428
523 0.5323
524 0.5422
525 0.5591
526 0.5535
527 0.5071
528 0.5197
529 0.5536
530 0.5595
531 0.568
532 0.5697
533 0.5638
534 0.5564
535 0.5586
536 0.5757
537 0.5631
538 0.5636
539 0.5678
540 0.5555
541 0.545
542 0.5573
543 0.5643
544 0.5696
545 0.5751
546 0.577
547 0.5777
548 0.5714
549 0.5747
550 0.582
551 0.5796
552 0.5822
553 0.5818
554 0.5806
555 0.587
556 0.5846
557 0.5731
558 0.5666
559 0.5598
560 0.5528
561 0.5667
562 0.5724
563 0.5664
564 0.5697
565 0.5716
566 0.5671
567 0.5679
568 0.5785
569 0.5744
570 0.5734
571 0.5682
572 0.5696
573 0.5923
574 0.5957
575 0.5911
576 0.5829
577 0.5858
578 0.5875
579 0.58
580 0.585
581 0.5907
582 0.5941
583 0.6006
584 0.6017
585 0.5978
586 0.5876
587 0.587
588 0.5956
589 0.5732
590 0.5494
591 0.5764
592 0.5905
593 0.5924
594 0.592
595 0.5945
596 0.5924
597 0.597
598 0.5968
599 0.5919
600 0.5938
601 0.5907
602 0.5843
603 0.5874
604 0.5987
605 0.6015
606 0.5987
607 0.597
608 0.5952
609 0.5901
610 0.5875
611 0.5883
612 0.5898
613 0.5876
614 0.5808
615 0.5809
616 0.5768
617 0.5666
618 0.576
619 0.5851
620 0.5893
621 0.5952
622 0.5917
623 0.5885
624 0.5858
625 0.581
626 0.5795
627 0.5915
628 0.5993
629 0.6001
630 0.5938
631 0.5915
632 0.5836
633 0.5913
634 0.5886
635 0.5911
636 0.5914
637 0.5904
638 0.5991
639 0.5993
640 0.5878
641 0.5837
642 0.5818
643 0.5885
644 0.587
645 0.5884
646 0.5838
647 0.585
648 0.5897
649 0.5885
650 0.5716
651 0.5923
652 0.5958
653 0.5877
654 0.5834
655 0.5747
656 0.5372
657 0.494
658 0.5472
659 0.5741
660 0.5765
661 0.5819
662 0.5857
663 0.5841
664 0.5776
665 0.5796
666 0.5815
667 0.5786
668 0.5775
669 0.5816
670 0.5805
671 0.5787
672 0.5764
673 0.575
674 0.5743
675 0.5737
676 0.5731
677 0.5725
678 0.5721
679 0.5717
680 0.5713
681 0.5711
682 0.5709
683 0.5708
684 0.5707
685 0.5707
686 0.5708
687 0.5709
688 0.5711
689 0.5723
690 0.5756
691 0.5769
692 0.5743
693 0.5726
694 0.5739
695 0.571
696 0.5707
697 0.5728
698 0.5653
699 0.5725
700 0.5743
701 0.5668
702 0.5635
703 0.5661
704 0.5691
705 0.5753
706 0.5719
707 0.5652
708 0.5662
709 0.5614
710 0.5579
711 0.5604
712 0.553
713 0.5511
714 0.5526
715 0.5517
716 0.55
717 0.5526
718 0.5522
719 0.5453
720 0.5458
721 0.5471
722 0.5476
723 0.5472
724 0.5497
725 0.5486
726 0.5442
727 0.546
728 0.5452
729 0.5353
730 0.5333
731 0.5434
732 0.5424
733 0.5423
734 0.5426
735 0.543
736 0.5375
737 0.5361
738 0.5357
739 0.5239
740 0.5249
741 0.5222
742 0.5185
743 0.5266
744 0.5346
745 0.5293
746 0.5352
747 0.5334
748 0.5355
749 0.5326
750 0.5268
