# Top-of-atmosphere (TOA) lunar irradiance from Miller and Turner (2009) by 10 nm increments
# First column wavelength (nm), second column TOA irradiance# Phase angle = 36
# Units = mW/m^2-micrometer

300 0.002975
310 0.00298
320 0.004538
330 0.007414
340 0.006708
350 0.006223
360 0.008253
370 0.009998
380 0.008757
390 0.0104
400 0.01506
410 0.0158
420 0.01653
430 0.01466
440 0.01798
450 0.02149
460 0.02219
470 0.02252
480 0.02416
490 0.02365
500 0.02352
510 0.02394
520 0.02302
530 0.02477
540 0.0247
550 0.02599
560 0.02479
570 0.02583
580 0.02646
590 0.02496
600 0.0271
610 0.02693
620 0.02713
630 0.02746
640 0.0273
650 0.02666
660 0.02701
670 0.02732
680 0.02701
690 0.02733
700 0.02739
710 0.02672
720 0.02626
730 0.02577
740 0.02547
750 0.02568
