# Top-of-atmosphere (TOA) lunar irradiance from Miller and Turner (2009) by 10 nm increments
# First column wavelength (nm), second column TOA irradiance# Phase angle = 47
# Units = mW/m^2-micrometer

300 0.006321
310 0.006324
320 0.009621
330 0.01571
340 0.0142
350 0.01316
360 0.01743
370 0.0211
380 0.01846
390 0.02191
400 0.0317
410 0.03322
420 0.03471
430 0.03076
440 0.03769
450 0.045
460 0.04643
470 0.04708
480 0.05047
490 0.04935
500 0.04904
510 0.04987
520 0.0479
530 0.05148
540 0.05129
550 0.05393
560 0.05139
570 0.05349
580 0.05476
590 0.0516
600 0.05597
610 0.05556
620 0.05593
630 0.05655
640 0.05618
650 0.05481
660 0.05547
670 0.05605
680 0.05536
690 0.05597
700 0.05603
710 0.05462
720 0.05362
730 0.05257
740 0.05192
750 0.05229
