# Top-of-atmosphere (TOA) lunar irradiance from Miller and Turner (2009)
# First column wavelength (nm), second column TOA irradiance# Lunar phase angle: 3
# Irradiance units: mW/m^2-micrometer

300 0.0002788
301 0.0002073
302 0.0002611
303 0.0002496
304 0.0003531
305 0.0003289
306 0.0003359
307 0.0003108
308 0.0003615
309 0.0003647
310 0.0002785
311 0.0003701
312 0.0004392
313 0.0003815
314 0.000414
315 0.0003805
316 0.0003919
317 0.0003583
318 0.000499
319 0.0003839
320 0.0004232
321 0.0005229
322 0.0004149
323 0.000435
324 0.0004057
325 0.0004864
326 0.0005449
327 0.0006214
328 0.0006034
329 0.0005612
330 0.0006899
331 0.0006371
332 0.0006311
333 0.0006125
334 0.000587
335 0.000628
336 0.0006404
337 0.000507
338 0.0005568
339 0.0005979
340 0.0006228
341 0.0006881
342 0.0006035
343 0.0006717
344 0.0006753
345 0.0004874
346 0.0006653
347 0.0006176
348 0.0006129
349 0.0006393
350 0.0005764
351 0.000762
352 0.0006802
353 0.0006094
354 0.0007357
355 0.0007831
356 0.0007345
357 0.0006568
358 0.0005967
359 0.0004457
360 0.0007627
361 0.0007196
362 0.000638
363 0.0007297
364 0.0006893
365 0.000744
366 0.0008543
367 0.0009097
368 0.0008776
369 0.0007832
370 0.000922
371 0.0008177
372 0.0009461
373 0.0007819
374 0.0006753
375 0.0006892
376 0.0008287
377 0.0008136
378 0.0009808
379 0.001053
380 0.0008057
381 0.0009437
382 0.0008581
383 0.0006157
384 0.0005133
385 0.0007446
386 0.0007838
387 0.0007941
388 0.000776
389 0.0007465
390 0.0009549
391 0.0009774
392 0.001138
393 0.0008612
394 0.0003752
395 0.000869
396 0.001125
397 0.000598
398 0.0006725
399 0.001282
400 0.00138
401 0.001386
402 0.001509
403 0.001533
404 0.001502
405 0.001468
406 0.001428
407 0.001391
408 0.001411
409 0.001431
410 0.001444
411 0.001338
412 0.001393
413 0.001449
414 0.001504
415 0.001511
416 0.001515
417 0.001535
418 0.001505
419 0.001505
420 0.001507
421 0.001544
422 0.001575
423 0.001521
424 0.001503
425 0.001541
426 0.001531
427 0.001525
428 0.001469
429 0.001469
430 0.001333
431 0.001114
432 0.001381
433 0.001527
434 0.001507
435 0.001477
436 0.001588
437 0.001678
438 0.001627
439 0.001565
440 0.001632
441 0.001704
442 0.00177
443 0.001825
444 0.001831
445 0.001834
446 0.001804
447 0.001794
448 0.0019
449 0.001925
450 0.001946
451 0.002035
452 0.002045
453 0.001951
454 0.001902
455 0.001991
456 0.002006
457 0.002063
458 0.002065
459 0.002016
460 0.002005
461 0.002038
462 0.002072
463 0.002093
464 0.002072
465 0.002027
466 0.002029
467 0.002015
468 0.002006
469 0.002044
470 0.00203
471 0.002003
472 0.002054
473 0.002119
474 0.002093
475 0.002141
476 0.002142
477 0.002114
478 0.002172
479 0.002173
480 0.002173
481 0.002165
482 0.002183
483 0.002165
484 0.002139
485 0.002116
486 0.001927
487 0.001822
488 0.001974
489 0.002037
490 0.002122
491 0.002155
492 0.002081
493 0.002079
494 0.002106
495 0.002158
496 0.002161
497 0.002155
498 0.002141
499 0.002107
500 0.002106
501 0.002075
502 0.002035
503 0.002081
504 0.002122
505 0.002116
506 0.002196
507 0.002232
508 0.002202
509 0.002171
510 0.002139
511 0.002118
512 0.002162
513 0.002141
514 0.002091
515 0.002067
516 0.002101
517 0.001958
518 0.001843
519 0.001915
520 0.002052
521 0.002092
522 0.002133
523 0.002092
524 0.002132
525 0.002199
526 0.002177
527 0.001995
528 0.002045
529 0.002178
530 0.002202
531 0.002236
532 0.002243
533 0.002221
534 0.002192
535 0.002201
536 0.002269
537 0.00222
538 0.002222
539 0.002239
540 0.002191
541 0.00215
542 0.002199
543 0.002228
544 0.002249
545 0.002271
546 0.002279
547 0.002282
548 0.002258
549 0.002271
550 0.002301
551 0.002292
552 0.002302
553 0.002301
554 0.002297
555 0.002323
556 0.002314
557 0.002269
558 0.002244
559 0.002217
560 0.00219
561 0.002246
562 0.002269
563 0.002245
564 0.002259
565 0.002267
566 0.002249
567 0.002253
568 0.002296
569 0.00228
570 0.002276
571 0.002256
572 0.002262
573 0.002353
574 0.002367
575 0.002349
576 0.002317
577 0.002329
578 0.002336
579 0.002307
580 0.002327
581 0.002351
582 0.002364
583 0.002391
584 0.002396
585 0.002381
586 0.002341
587 0.002339
588 0.002373
589 0.002285
590 0.00219
591 0.002298
592 0.002355
593 0.002363
594 0.002362
595 0.002373
596 0.002365
597 0.002384
598 0.002383
599 0.002364
600 0.002372
601 0.00236
602 0.002335
603 0.002348
604 0.002394
605 0.002406
606 0.002395
607 0.002389
608 0.002382
609 0.002362
610 0.002352
611 0.002356
612 0.002362
613 0.002354
614 0.002327
615 0.002328
616 0.002312
617 0.002272
618 0.00231
619 0.002347
620 0.002364
621 0.002389
622 0.002375
623 0.002363
624 0.002352
625 0.002334
626 0.002328
627 0.002377
628 0.002408
629 0.002412
630 0.002387
631 0.002379
632 0.002347
633 0.002379
634 0.002369
635 0.002379
636 0.002381
637 0.002377
638 0.002413
639 0.002414
640 0.002368
641 0.002352
642 0.002345
643 0.002373
644 0.002367
645 0.002373
646 0.002355
647 0.002361
648 0.00238
649 0.002376
650 0.002308
651 0.002392
652 0.002407
653 0.002374
654 0.002357
655 0.002323
656 0.002172
657 0.001998
658 0.002213
659 0.002322
660 0.002333
661 0.002355
662 0.002371
663 0.002365
664 0.002339
665 0.002348
666 0.002356
667 0.002345
668 0.002341
669 0.002358
670 0.002354
671 0.002347
672 0.002338
673 0.002333
674 0.002331
675 0.002329
676 0.002327
677 0.002325
678 0.002324
679 0.002323
680 0.002322
681 0.002321
682 0.002321
683 0.002321
684 0.002321
685 0.002321
686 0.002322
687 0.002323
688 0.002325
689 0.00233
690 0.002344
691 0.00235
692 0.00234
693 0.002333
694 0.002339
695 0.002328
696 0.002327
697 0.002336
698 0.002306
699 0.002336
700 0.002344
701 0.002314
702 0.0023
703 0.002312
704 0.002325
705 0.00235
706 0.002337
707 0.00231
708 0.002314
709 0.002295
710 0.002282
711 0.002292
712 0.002262
713 0.002255
714 0.002262
715 0.002259
716 0.002252
717 0.002263
718 0.002262
719 0.002234
720 0.002237
721 0.002243
722 0.002245
723 0.002244
724 0.002255
725 0.002251
726 0.002233
727 0.002241
728 0.002238
729 0.002198
730 0.00219
731 0.002232
732 0.002229
733 0.002228
734 0.00223
735 0.002232
736 0.00221
737 0.002205
738 0.002204
739 0.002156
740 0.00216
741 0.00215
742 0.002135
743 0.002169
744 0.002202
745 0.002181
746 0.002206
747 0.002198
748 0.002207
749 0.002196
750 0.002173
