# Top-of-atmosphere (TOA) lunar irradiance from Miller and Turner (2009)
# First column wavelength (nm), second column TOA irradiance# Lunar phase angle: 2
# Irradiance units: mW/m^2-micrometer

300 0.0002614
301 0.0001944
302 0.0002449
303 0.000234
304 0.0003311
305 0.0003084
306 0.0003149
307 0.0002913
308 0.0003389
309 0.0003419
310 0.0002611
311 0.000347
312 0.0004117
313 0.0003576
314 0.0003881
315 0.0003567
316 0.0003673
317 0.0003358
318 0.0004677
319 0.0003598
320 0.0003966
321 0.0004901
322 0.0003889
323 0.0004076
324 0.0003802
325 0.0004558
326 0.0005106
327 0.0005823
328 0.0005654
329 0.0005258
330 0.0006464
331 0.0005969
332 0.0005913
333 0.0005739
334 0.0005499
335 0.0005884
336 0.0005999
337 0.000475
338 0.0005216
339 0.0005601
340 0.0005834
341 0.0006445
342 0.0005653
343 0.0006291
344 0.0006325
345 0.0004564
346 0.0006231
347 0.0005784
348 0.000574
349 0.0005987
350 0.0005398
351 0.0007135
352 0.0006369
353 0.0005707
354 0.0006889
355 0.0007332
356 0.0006877
357 0.0006149
358 0.0005587
359 0.0004172
360 0.0007141
361 0.0006737
362 0.0005972
363 0.000683
364 0.0006452
365 0.0006965
366 0.0007996
367 0.0008515
368 0.0008214
369 0.0007331
370 0.0008629
371 0.0007653
372 0.0008855
373 0.0007317
374 0.0006319
375 0.000645
376 0.0007754
377 0.0007613
378 0.0009178
379 0.0009856
380 0.0007538
381 0.000883
382 0.0008029
383 0.000576
384 0.0004802
385 0.0006966
386 0.0007333
387 0.0007428
388 0.0007259
389 0.0006983
390 0.0008932
391 0.0009143
392 0.001065
393 0.0008055
394 0.000351
395 0.0008128
396 0.001052
397 0.0005593
398 0.0006289
399 0.001199
400 0.00129
401 0.001297
402 0.001411
403 0.001434
404 0.001404
405 0.001373
406 0.001335
407 0.001301
408 0.001319
409 0.001338
410 0.00135
411 0.001251
412 0.001303
413 0.001354
414 0.001406
415 0.001412
416 0.001416
417 0.001435
418 0.001407
419 0.001407
420 0.001408
421 0.001443
422 0.001472
423 0.001422
424 0.001405
425 0.00144
426 0.00143
427 0.001425
428 0.001372
429 0.001372
430 0.001246
431 0.001041
432 0.00129
433 0.001426
434 0.001408
435 0.00138
436 0.001484
437 0.001568
438 0.00152
439 0.001462
440 0.001524
441 0.001591
442 0.001653
443 0.001704
444 0.00171
445 0.001713
446 0.001685
447 0.001675
448 0.001775
449 0.001798
450 0.001817
451 0.0019
452 0.00191
453 0.001822
454 0.001776
455 0.001859
456 0.001873
457 0.001926
458 0.001928
459 0.001882
460 0.001872
461 0.001903
462 0.001934
463 0.001954
464 0.001934
465 0.001893
466 0.001894
467 0.001881
468 0.001872
469 0.001907
470 0.001895
471 0.001869
472 0.001917
473 0.001978
474 0.001954
475 0.001998
476 0.001999
477 0.001973
478 0.002027
479 0.002028
480 0.002028
481 0.00202
482 0.002037
483 0.00202
484 0.001996
485 0.001974
486 0.001797
487 0.001699
488 0.001841
489 0.0019
490 0.00198
491 0.00201
492 0.001942
493 0.001939
494 0.001964
495 0.002013
496 0.002016
497 0.00201
498 0.001996
499 0.001965
500 0.001964
501 0.001935
502 0.001898
503 0.00194
504 0.001979
505 0.001973
506 0.002048
507 0.002081
508 0.002053
509 0.002024
510 0.001994
511 0.001974
512 0.002015
513 0.001996
514 0.00195
515 0.001927
516 0.001958
517 0.001825
518 0.001718
519 0.001785
520 0.001912
521 0.00195
522 0.001988
523 0.00195
524 0.001986
525 0.002049
526 0.002028
527 0.001859
528 0.001905
529 0.00203
530 0.002052
531 0.002084
532 0.00209
533 0.002069
534 0.002042
535 0.002051
536 0.002114
537 0.002068
538 0.00207
539 0.002086
540 0.002041
541 0.002003
542 0.002049
543 0.002075
544 0.002095
545 0.002115
546 0.002123
547 0.002125
548 0.002103
549 0.002115
550 0.002143
551 0.002134
552 0.002144
553 0.002143
554 0.002139
555 0.002163
556 0.002155
557 0.002113
558 0.002089
559 0.002064
560 0.002039
561 0.002091
562 0.002112
563 0.00209
564 0.002103
565 0.00211
566 0.002094
567 0.002097
568 0.002137
569 0.002122
570 0.002119
571 0.0021
572 0.002106
573 0.00219
574 0.002203
575 0.002186
576 0.002156
577 0.002167
578 0.002174
579 0.002147
580 0.002165
581 0.002187
582 0.0022
583 0.002224
584 0.002229
585 0.002215
586 0.002178
587 0.002176
588 0.002208
589 0.002126
590 0.002037
591 0.002138
592 0.002191
593 0.002198
594 0.002197
595 0.002207
596 0.002199
597 0.002217
598 0.002217
599 0.002199
600 0.002206
601 0.002195
602 0.002172
603 0.002184
604 0.002226
605 0.002237
606 0.002227
607 0.002221
608 0.002215
609 0.002196
610 0.002187
611 0.00219
612 0.002196
613 0.002188
614 0.002163
615 0.002164
616 0.00215
617 0.002112
618 0.002147
619 0.002182
620 0.002198
621 0.00222
622 0.002207
623 0.002196
624 0.002186
625 0.002169
626 0.002164
627 0.002209
628 0.002238
629 0.002242
630 0.002218
631 0.00221
632 0.002181
633 0.002211
634 0.002201
635 0.002211
636 0.002212
637 0.002209
638 0.002242
639 0.002243
640 0.0022
641 0.002185
642 0.002179
643 0.002204
644 0.002199
645 0.002204
646 0.002188
647 0.002193
648 0.002211
649 0.002207
650 0.002143
651 0.002221
652 0.002235
653 0.002205
654 0.002189
655 0.002157
656 0.002017
657 0.001855
658 0.002055
659 0.002156
660 0.002166
661 0.002186
662 0.002201
663 0.002196
664 0.002171
665 0.002179
666 0.002187
667 0.002176
668 0.002173
669 0.002189
670 0.002185
671 0.002179
672 0.00217
673 0.002165
674 0.002163
675 0.002161
676 0.002159
677 0.002158
678 0.002156
679 0.002155
680 0.002154
681 0.002154
682 0.002153
683 0.002153
684 0.002154
685 0.002154
686 0.002155
687 0.002155
688 0.002157
689 0.002162
690 0.002175
691 0.00218
692 0.00217
693 0.002164
694 0.002169
695 0.002159
696 0.002159
697 0.002167
698 0.002139
699 0.002166
700 0.002174
701 0.002146
702 0.002133
703 0.002144
704 0.002156
705 0.002179
706 0.002167
707 0.002142
708 0.002146
709 0.002128
710 0.002115
711 0.002125
712 0.002098
713 0.002091
714 0.002097
715 0.002094
716 0.002088
717 0.002098
718 0.002097
719 0.002071
720 0.002073
721 0.002079
722 0.002081
723 0.00208
724 0.00209
725 0.002086
726 0.00207
727 0.002077
728 0.002074
729 0.002037
730 0.00203
731 0.002068
732 0.002065
733 0.002065
734 0.002066
735 0.002068
736 0.002048
737 0.002043
738 0.002042
739 0.001997
740 0.002001
741 0.001991
742 0.001978
743 0.002009
744 0.00204
745 0.00202
746 0.002043
747 0.002036
748 0.002045
749 0.002034
750 0.002012
