# Top-of-atmosphere (TOA) lunar irradiance from Miller and Turner (2009)
# First column wavelength (nm), second column TOA irradiance# Lunar phase angle: 1
# Irradiance units: mW/m^2-micrometer

300 0.0002451
301 0.0001823
302 0.0002296
303 0.0002194
304 0.0003104
305 0.0002891
306 0.0002952
307 0.0002732
308 0.0003177
309 0.0003205
310 0.0002448
311 0.0003252
312 0.0003859
313 0.0003353
314 0.0003638
315 0.0003343
316 0.0003443
317 0.0003148
318 0.0004384
319 0.0003372
320 0.0003717
321 0.0004593
322 0.0003644
323 0.000382
324 0.0003563
325 0.0004271
326 0.0004785
327 0.0005456
328 0.0005298
329 0.0004927
330 0.0006057
331 0.0005593
332 0.000554
333 0.0005376
334 0.0005152
335 0.0005512
336 0.000562
337 0.000445
338 0.0004886
339 0.0005246
340 0.0005465
341 0.0006037
342 0.0005295
343 0.0005892
344 0.0005924
345 0.0004275
346 0.0005835
347 0.0005417
348 0.0005376
349 0.0005606
350 0.0005055
351 0.0006682
352 0.0005964
353 0.0005343
354 0.000645
355 0.0006865
356 0.0006438
357 0.0005757
358 0.000523
359 0.0003906
360 0.0006685
361 0.0006307
362 0.0005591
363 0.0006394
364 0.000604
365 0.0006519
366 0.0007485
367 0.000797
368 0.0007688
369 0.0006861
370 0.0008076
371 0.0007162
372 0.0008287
373 0.0006848
374 0.0005914
375 0.0006036
376 0.0007256
377 0.0007124
378 0.0008588
379 0.0009223
380 0.0007053
381 0.0008261
382 0.0007512
383 0.0005389
384 0.0004492
385 0.0006517
386 0.000686
387 0.0006949
388 0.000679
389 0.0006532
390 0.0008355
391 0.0008552
392 0.000996
393 0.0007534
394 0.0003282
395 0.0007602
396 0.0009837
397 0.000523
398 0.0005882
399 0.001121
400 0.001206
401 0.001212
402 0.001319
403 0.00134
404 0.001313
405 0.001284
406 0.001248
407 0.001216
408 0.001233
409 0.001251
410 0.001262
411 0.00117
412 0.001218
413 0.001266
414 0.001315
415 0.00132
416 0.001324
417 0.001341
418 0.001315
419 0.001315
420 0.001316
421 0.001349
422 0.001375
423 0.001329
424 0.001313
425 0.001346
426 0.001337
427 0.001331
428 0.001282
429 0.001282
430 0.001164
431 0.0009723
432 0.001205
433 0.001333
434 0.001316
435 0.001289
436 0.001386
437 0.001465
438 0.00142
439 0.001366
440 0.001424
441 0.001487
442 0.001544
443 0.001592
444 0.001597
445 0.0016
446 0.001574
447 0.001564
448 0.001657
449 0.001679
450 0.001697
451 0.001774
452 0.001784
453 0.001701
454 0.001659
455 0.001736
456 0.001749
457 0.001798
458 0.0018
459 0.001757
460 0.001747
461 0.001776
462 0.001806
463 0.001824
464 0.001805
465 0.001767
466 0.001768
467 0.001756
468 0.001748
469 0.00178
470 0.001769
471 0.001744
472 0.001789
473 0.001846
474 0.001823
475 0.001865
476 0.001865
477 0.001841
478 0.001891
479 0.001892
480 0.001892
481 0.001885
482 0.0019
483 0.001885
484 0.001862
485 0.001841
486 0.001677
487 0.001585
488 0.001717
489 0.001773
490 0.001847
491 0.001875
492 0.001811
493 0.001808
494 0.001832
495 0.001878
496 0.00188
497 0.001875
498 0.001862
499 0.001833
500 0.001832
501 0.001804
502 0.00177
503 0.001809
504 0.001845
505 0.00184
506 0.001909
507 0.001941
508 0.001914
509 0.001887
510 0.001859
511 0.001841
512 0.001879
513 0.001861
514 0.001817
515 0.001796
516 0.001825
517 0.001701
518 0.001601
519 0.001664
520 0.001783
521 0.001817
522 0.001853
523 0.001817
524 0.001851
525 0.001909
526 0.00189
527 0.001732
528 0.001776
529 0.001892
530 0.001912
531 0.001942
532 0.001948
533 0.001928
534 0.001903
535 0.001911
536 0.001969
537 0.001927
538 0.001929
539 0.001943
540 0.001902
541 0.001866
542 0.001908
543 0.001933
544 0.001951
545 0.00197
546 0.001977
547 0.001979
548 0.001958
549 0.00197
550 0.001996
551 0.001987
552 0.001997
553 0.001996
554 0.001992
555 0.002014
556 0.002006
557 0.001967
558 0.001945
559 0.001922
560 0.001898
561 0.001946
562 0.001966
563 0.001946
564 0.001957
565 0.001964
566 0.001949
567 0.001952
568 0.001989
569 0.001975
570 0.001972
571 0.001954
572 0.00196
573 0.002038
574 0.00205
575 0.002034
576 0.002007
577 0.002017
578 0.002023
579 0.001998
580 0.002015
581 0.002035
582 0.002047
583 0.00207
584 0.002074
585 0.002061
586 0.002026
587 0.002024
588 0.002054
589 0.001977
590 0.001895
591 0.001989
592 0.002038
593 0.002045
594 0.002044
595 0.002053
596 0.002046
597 0.002062
598 0.002062
599 0.002045
600 0.002052
601 0.002041
602 0.00202
603 0.002031
604 0.00207
605 0.00208
606 0.002071
607 0.002065
608 0.002059
609 0.002042
610 0.002033
611 0.002036
612 0.002042
613 0.002034
614 0.002011
615 0.002012
616 0.001998
617 0.001963
618 0.001996
619 0.002028
620 0.002043
621 0.002064
622 0.002052
623 0.002041
624 0.002032
625 0.002016
626 0.002011
627 0.002052
628 0.00208
629 0.002083
630 0.002061
631 0.002054
632 0.002027
633 0.002054
634 0.002045
635 0.002054
636 0.002055
637 0.002052
638 0.002082
639 0.002083
640 0.002044
641 0.00203
642 0.002024
643 0.002047
644 0.002043
645 0.002047
646 0.002032
647 0.002037
648 0.002053
649 0.002049
650 0.001991
651 0.002063
652 0.002076
653 0.002048
654 0.002033
655 0.002003
656 0.001873
657 0.001722
658 0.001908
659 0.002002
660 0.002011
661 0.00203
662 0.002044
663 0.002038
664 0.002016
665 0.002023
666 0.00203
667 0.00202
668 0.002017
669 0.002031
670 0.002028
671 0.002022
672 0.002014
673 0.00201
674 0.002008
675 0.002006
676 0.002004
677 0.002002
678 0.002001
679 0.002
680 0.001999
681 0.001999
682 0.001998
683 0.001998
684 0.001998
685 0.001998
686 0.001999
687 0.002
688 0.002001
689 0.002005
690 0.002017
691 0.002022
692 0.002013
693 0.002008
694 0.002012
695 0.002003
696 0.002002
697 0.00201
698 0.001984
699 0.002009
700 0.002016
701 0.00199
702 0.001978
703 0.001988
704 0.001999
705 0.002021
706 0.002009
707 0.001986
708 0.00199
709 0.001973
710 0.001961
711 0.00197
712 0.001945
713 0.001939
714 0.001944
715 0.001941
716 0.001935
717 0.001945
718 0.001944
719 0.00192
720 0.001922
721 0.001927
722 0.001929
723 0.001928
724 0.001937
725 0.001933
726 0.001918
727 0.001925
728 0.001922
729 0.001888
730 0.001881
731 0.001917
732 0.001913
733 0.001913
734 0.001915
735 0.001916
736 0.001897
737 0.001893
738 0.001892
739 0.00185
740 0.001854
741 0.001845
742 0.001832
743 0.001861
744 0.001889
745 0.001871
746 0.001892
747 0.001886
748 0.001894
749 0.001884
750 0.001864
