# Top-of-atmosphere (TOA) lunar irradiance from Miller and Turner (2009)
# First column wavelength (nm), second column TOA irradiance# Lunar phase angle: 111
# Irradiance units: mW/m^2-micrometer

300 0.1082
301 0.08046
302 0.1013
303 0.09681
304 0.1369
305 0.1275
306 0.1302
307 0.1204
308 0.1401
309 0.1413
310 0.1079
311 0.1433
312 0.17
313 0.1477
314 0.1602
315 0.1472
316 0.1516
317 0.1385
318 0.1929
319 0.1484
320 0.1635
321 0.202
322 0.1603
323 0.168
324 0.1566
325 0.1877
326 0.2103
327 0.2397
328 0.2327
329 0.2164
330 0.266
331 0.2456
332 0.2432
333 0.236
334 0.2261
335 0.2418
336 0.2465
337 0.1952
338 0.2143
339 0.23
340 0.2396
341 0.2646
342 0.232
343 0.2582
344 0.2595
345 0.1872
346 0.2555
347 0.2372
348 0.2353
349 0.2454
350 0.2212
351 0.2924
352 0.2609
353 0.2337
354 0.2821
355 0.3002
356 0.2815
357 0.2516
358 0.2286
359 0.1707
360 0.292
361 0.2755
362 0.2442
363 0.2792
364 0.2637
365 0.2846
366 0.3267
367 0.3478
368 0.3354
369 0.2993
370 0.3522
371 0.3123
372 0.3613
373 0.2985
374 0.2577
375 0.263
376 0.3161
377 0.3103
378 0.374
379 0.4016
380 0.3071
381 0.3596
382 0.3269
383 0.2345
384 0.1954
385 0.2835
386 0.2983
387 0.3022
388 0.2952
389 0.2839
390 0.3631
391 0.3716
392 0.4327
393 0.3273
394 0.1426
395 0.3301
396 0.4271
397 0.227
398 0.2553
399 0.4866
400 0.5234
401 0.5259
402 0.5722
403 0.5813
404 0.5694
405 0.5565
406 0.541
407 0.527
408 0.5344
409 0.542
410 0.5467
411 0.5065
412 0.5272
413 0.5481
414 0.569
415 0.5713
416 0.5727
417 0.5802
418 0.5687
419 0.5685
420 0.5691
421 0.5832
422 0.5945
423 0.5742
424 0.5673
425 0.5813
426 0.5773
427 0.5749
428 0.5537
429 0.5535
430 0.5024
431 0.4196
432 0.52
433 0.5748
434 0.5675
435 0.5558
436 0.5976
437 0.6314
438 0.6121
439 0.5886
440 0.6134
441 0.6404
442 0.665
443 0.6856
444 0.6878
445 0.6886
446 0.6774
447 0.6733
448 0.7131
449 0.7222
450 0.7298
451 0.763
452 0.7669
453 0.7313
454 0.713
455 0.7461
456 0.7515
457 0.7724
458 0.7732
459 0.7546
460 0.7503
461 0.7625
462 0.775
463 0.7829
464 0.7746
465 0.7579
466 0.7584
467 0.7529
468 0.7494
469 0.7632
470 0.7581
471 0.7476
472 0.7666
473 0.7907
474 0.7809
475 0.7986
476 0.7986
477 0.7883
478 0.8095
479 0.8097
480 0.8097
481 0.8063
482 0.8129
483 0.806
484 0.7962
485 0.7873
486 0.7168
487 0.6775
488 0.7339
489 0.7573
490 0.7889
491 0.8008
492 0.7733
493 0.7721
494 0.7819
495 0.8013
496 0.8022
497 0.7999
498 0.7942
499 0.7817
500 0.7811
501 0.7692
502 0.7545
503 0.7711
504 0.7863
505 0.7838
506 0.8133
507 0.8265
508 0.8151
509 0.8036
510 0.7915
511 0.7834
512 0.7995
513 0.7916
514 0.7731
515 0.764
516 0.7762
517 0.7233
518 0.6807
519 0.7071
520 0.7575
521 0.7721
522 0.787
523 0.7719
524 0.7862
525 0.8107
526 0.8025
527 0.7353
528 0.7535
529 0.8026
530 0.8112
531 0.8235
532 0.8259
533 0.8174
534 0.8066
535 0.8098
536 0.8345
537 0.8163
538 0.817
539 0.8231
540 0.8053
541 0.79
542 0.8079
543 0.818
544 0.8257
545 0.8336
546 0.8364
547 0.8373
548 0.8282
549 0.8329
550 0.8436
551 0.8401
552 0.8438
553 0.8432
554 0.8414
555 0.8507
556 0.8472
557 0.8306
558 0.8212
559 0.8112
560 0.801
561 0.8212
562 0.8295
563 0.8207
564 0.8254
565 0.8283
566 0.8218
567 0.8229
568 0.8382
569 0.8323
570 0.8308
571 0.8232
572 0.8253
573 0.8581
574 0.863
575 0.8563
576 0.8445
577 0.8487
578 0.8511
579 0.8402
580 0.8474
581 0.8558
582 0.8606
583 0.87
584 0.8716
585 0.8659
586 0.8511
587 0.8502
588 0.8626
589 0.8303
590 0.7957
591 0.8348
592 0.8553
593 0.858
594 0.8575
595 0.861
596 0.8579
597 0.8646
598 0.8644
599 0.8572
600 0.8599
601 0.8554
602 0.8461
603 0.8506
604 0.867
605 0.871
606 0.8669
607 0.8645
608 0.8618
609 0.8545
610 0.8506
611 0.8518
612 0.854
613 0.8507
614 0.8409
615 0.841
616 0.8351
617 0.8203
618 0.8339
619 0.8471
620 0.8532
621 0.8617
622 0.8565
623 0.852
624 0.848
625 0.8411
626 0.8389
627 0.8562
628 0.8675
629 0.8687
630 0.8595
631 0.8562
632 0.8447
633 0.8559
634 0.852
635 0.8556
636 0.856
637 0.8545
638 0.8671
639 0.8673
640 0.8507
641 0.8448
642 0.842
643 0.8517
644 0.8495
645 0.8514
646 0.8448
647 0.8466
648 0.8533
649 0.8516
650 0.8271
651 0.8571
652 0.8622
653 0.8504
654 0.8441
655 0.8315
656 0.7773
657 0.7148
658 0.7917
659 0.8306
660 0.8341
661 0.8419
662 0.8473
663 0.8451
664 0.8356
665 0.8384
666 0.8412
667 0.837
668 0.8354
669 0.8413
670 0.8397
671 0.8372
672 0.8337
673 0.8318
674 0.8307
675 0.8298
676 0.8289
677 0.8281
678 0.8275
679 0.8269
680 0.8264
681 0.826
682 0.8257
683 0.8255
684 0.8254
685 0.8254
686 0.8254
687 0.8256
688 0.8259
689 0.8276
690 0.8325
691 0.8343
692 0.8304
693 0.828
694 0.8298
695 0.8256
696 0.8253
697 0.8282
698 0.8174
699 0.8278
700 0.8304
701 0.8195
702 0.8147
703 0.8185
704 0.8229
705 0.8317
706 0.8268
707 0.8172
708 0.8185
709 0.8116
710 0.8066
711 0.8101
712 0.7994
713 0.7967
714 0.7988
715 0.7976
716 0.795
717 0.7988
718 0.7982
719 0.7882
720 0.7889
721 0.7908
722 0.7915
723 0.7909
724 0.7946
725 0.7929
726 0.7866
727 0.7891
728 0.7879
729 0.7737
730 0.7707
731 0.7853
732 0.7838
733 0.7836
734 0.7841
735 0.7847
736 0.7767
737 0.7748
738 0.7741
739 0.757
740 0.7584
741 0.7545
742 0.7492
743 0.7609
744 0.7724
745 0.7648
746 0.7733
747 0.7706
748 0.7736
749 0.7695
750 0.7611
