# Top-of-atmosphere (TOA) lunar irradiance from Miller and Turner (2009) by 10 nm increments
# First column wavelength (nm), second column TOA irradiance# Phase angle = 49
# Units = mW/m^2-micrometer

300 0.00721
310 0.007212
320 0.01097
330 0.01791
340 0.01618
350 0.01499
360 0.01986
370 0.02404
380 0.02103
390 0.02495
400 0.03609
410 0.03782
420 0.03951
430 0.035
440 0.04288
450 0.0512
460 0.05281
470 0.05354
480 0.05738
490 0.0561
500 0.05574
510 0.05667
520 0.05442
530 0.05848
540 0.05826
550 0.06124
560 0.05835
570 0.06072
580 0.06215
590 0.05856
600 0.0635
610 0.06303
620 0.06343
630 0.06412
640 0.06369
650 0.06213
660 0.06287
670 0.06352
680 0.06272
690 0.0634
700 0.06346
710 0.06185
720 0.0607
730 0.05951
740 0.05876
750 0.05917
