# Top-of-atmosphere (TOA) lunar irradiance from Miller and Turner (2009) by 10 nm increments
# First column wavelength (nm), second column TOA irradiance# Phase angle = 43
# Units = mW/m^2-micrometer

300 0.004858
310 0.004862
320 0.007399
330 0.01208
340 0.01093
350 0.01013
360 0.01343
370 0.01626
380 0.01423
390 0.01689
400 0.02445
410 0.02564
420 0.02679
430 0.02375
440 0.02911
450 0.03477
460 0.03589
470 0.03641
480 0.03904
490 0.03819
500 0.03796
510 0.03862
520 0.0371
530 0.03989
540 0.03976
550 0.04182
560 0.03986
570 0.04151
580 0.04251
590 0.04007
600 0.04348
610 0.04318
620 0.04348
630 0.04398
640 0.0437
650 0.04266
660 0.04319
670 0.04365
680 0.04313
690 0.04362
700 0.04369
710 0.0426
720 0.04183
730 0.04103
740 0.04054
750 0.04084
