# Top-of-atmosphere (TOA) lunar irradiance from Miller and Turner (2009) by 10 nm increments
# First column wavelength (nm), second column TOA irradiance# Phase angle = 59
# Units = mW/m^2-micrometer

300 0.01361
310 0.0136
320 0.02067
330 0.03369
340 0.03042
350 0.02815
360 0.03725
370 0.04503
380 0.03935
390 0.04664
400 0.06739
410 0.07054
420 0.07361
430 0.06514
440 0.07971
450 0.09505
460 0.09795
470 0.09919
480 0.1062
490 0.1037
500 0.1029
510 0.1045
520 0.1003
530 0.1076
540 0.1071
550 0.1124
560 0.107
570 0.1112
580 0.1137
590 0.107
600 0.1159
610 0.1149
620 0.1156
630 0.1167
640 0.1158
650 0.1128
660 0.114
670 0.1151
680 0.1135
690 0.1146
700 0.1146
710 0.1115
720 0.1093
730 0.1071
740 0.1056
750 0.1062
