# Top-of-atmosphere (TOA) lunar irradiance from Miller and Turner (2009)
# First column wavelength (nm), second column TOA irradiance# Lunar phase angle: 110
# Irradiance units: mW/m^2-micrometer

300 0.1055
301 0.07842
302 0.09875
303 0.09436
304 0.1335
305 0.1243
306 0.1269
307 0.1174
308 0.1365
309 0.1377
310 0.1051
311 0.1397
312 0.1657
313 0.1439
314 0.1561
315 0.1435
316 0.1477
317 0.135
318 0.188
319 0.1446
320 0.1594
321 0.1969
322 0.1562
323 0.1637
324 0.1527
325 0.183
326 0.2049
327 0.2337
328 0.2269
329 0.2109
330 0.2592
331 0.2394
332 0.237
333 0.23
334 0.2204
335 0.2357
336 0.2403
337 0.1902
338 0.2089
339 0.2242
340 0.2335
341 0.2579
342 0.2262
343 0.2516
344 0.253
345 0.1825
346 0.2491
347 0.2312
348 0.2294
349 0.2392
350 0.2156
351 0.285
352 0.2543
353 0.2278
354 0.2749
355 0.2926
356 0.2744
357 0.2453
358 0.2228
359 0.1664
360 0.2847
361 0.2685
362 0.238
363 0.2721
364 0.257
365 0.2774
366 0.3184
367 0.339
368 0.327
369 0.2917
370 0.3433
371 0.3044
372 0.3522
373 0.291
374 0.2512
375 0.2564
376 0.3082
377 0.3025
378 0.3646
379 0.3914
380 0.2993
381 0.3505
382 0.3187
383 0.2286
384 0.1905
385 0.2763
386 0.2908
387 0.2945
388 0.2878
389 0.2768
390 0.354
391 0.3622
392 0.4218
393 0.319
394 0.139
395 0.3218
396 0.4163
397 0.2213
398 0.2488
399 0.4743
400 0.5102
401 0.5127
402 0.5578
403 0.5666
404 0.555
405 0.5425
406 0.5274
407 0.5137
408 0.521
409 0.5283
410 0.5329
411 0.4938
412 0.514
413 0.5342
414 0.5547
415 0.5569
416 0.5583
417 0.5656
418 0.5544
419 0.5542
420 0.5548
421 0.5685
422 0.5795
423 0.5597
424 0.553
425 0.5666
426 0.5628
427 0.5605
428 0.5398
429 0.5396
430 0.4898
431 0.409
432 0.507
433 0.5604
434 0.5532
435 0.5419
436 0.5826
437 0.6155
438 0.5967
439 0.5738
440 0.598
441 0.6243
442 0.6482
443 0.6683
444 0.6705
445 0.6713
446 0.6603
447 0.6563
448 0.6951
449 0.704
450 0.7115
451 0.7438
452 0.7476
453 0.7129
454 0.695
455 0.7273
456 0.7326
457 0.753
458 0.7537
459 0.7356
460 0.7315
461 0.7433
462 0.7555
463 0.7632
464 0.7551
465 0.7389
466 0.7394
467 0.734
468 0.7305
469 0.744
470 0.739
471 0.7288
472 0.7473
473 0.7708
474 0.7613
475 0.7785
476 0.7786
477 0.7685
478 0.7891
479 0.7894
480 0.7894
481 0.7861
482 0.7925
483 0.7858
484 0.7762
485 0.7675
486 0.6988
487 0.6605
488 0.7155
489 0.7383
490 0.7691
491 0.7807
492 0.7539
493 0.7527
494 0.7623
495 0.7812
496 0.7821
497 0.7798
498 0.7743
499 0.7621
500 0.7615
501 0.7499
502 0.7355
503 0.7518
504 0.7666
505 0.7641
506 0.7929
507 0.8058
508 0.7946
509 0.7834
510 0.7717
511 0.7638
512 0.7795
513 0.7717
514 0.7537
515 0.7448
516 0.7567
517 0.7051
518 0.6636
519 0.6893
520 0.7385
521 0.7528
522 0.7673
523 0.7525
524 0.7664
525 0.7904
526 0.7824
527 0.7169
528 0.7346
529 0.7825
530 0.7909
531 0.8029
532 0.8052
533 0.7969
534 0.7864
535 0.7896
536 0.8136
537 0.7959
538 0.7966
539 0.8025
540 0.7851
541 0.7702
542 0.7877
543 0.7975
544 0.805
545 0.8128
546 0.8154
547 0.8163
548 0.8075
549 0.8121
550 0.8225
551 0.819
552 0.8227
553 0.8221
554 0.8204
555 0.8294
556 0.826
557 0.8098
558 0.8006
559 0.7909
560 0.781
561 0.8007
562 0.8087
563 0.8001
564 0.8048
565 0.8076
566 0.8012
567 0.8023
568 0.8172
569 0.8115
570 0.81
571 0.8026
572 0.8047
573 0.8366
574 0.8414
575 0.8349
576 0.8234
577 0.8275
578 0.8298
579 0.8192
580 0.8262
581 0.8344
582 0.8391
583 0.8482
584 0.8498
585 0.8443
586 0.8299
587 0.829
588 0.8411
589 0.8096
590 0.7758
591 0.814
592 0.8339
593 0.8365
594 0.836
595 0.8395
596 0.8365
597 0.843
598 0.8428
599 0.8358
600 0.8385
601 0.834
602 0.825
603 0.8293
604 0.8453
605 0.8493
606 0.8453
607 0.8429
608 0.8403
609 0.8331
610 0.8294
611 0.8305
612 0.8326
613 0.8295
614 0.8199
615 0.82
616 0.8143
617 0.7998
618 0.8131
619 0.826
620 0.8319
621 0.8402
622 0.8352
623 0.8307
624 0.8269
625 0.8201
626 0.818
627 0.8348
628 0.8458
629 0.847
630 0.838
631 0.8348
632 0.8236
633 0.8346
634 0.8307
635 0.8343
636 0.8347
637 0.8332
638 0.8454
639 0.8457
640 0.8295
641 0.8237
642 0.821
643 0.8304
644 0.8284
645 0.8302
646 0.8238
647 0.8255
648 0.8321
649 0.8304
650 0.8065
651 0.8357
652 0.8407
653 0.8292
654 0.8231
655 0.8108
656 0.7579
657 0.697
658 0.772
659 0.8099
660 0.8133
661 0.8209
662 0.8262
663 0.824
664 0.8148
665 0.8176
666 0.8202
667 0.8162
668 0.8146
669 0.8204
670 0.8188
671 0.8163
672 0.813
673 0.8111
674 0.81
675 0.8091
676 0.8083
677 0.8075
678 0.8069
679 0.8063
680 0.8058
681 0.8054
682 0.8051
683 0.8049
684 0.8048
685 0.8048
686 0.8049
687 0.8051
688 0.8053
689 0.8071
690 0.8117
691 0.8135
692 0.8098
693 0.8074
694 0.8092
695 0.8051
696 0.8048
697 0.8076
698 0.7971
699 0.8072
700 0.8098
701 0.7992
702 0.7944
703 0.7982
704 0.8024
705 0.811
706 0.8062
707 0.7969
708 0.7982
709 0.7914
710 0.7865
711 0.79
712 0.7795
713 0.7769
714 0.779
715 0.7778
716 0.7752
717 0.779
718 0.7784
719 0.7686
720 0.7693
721 0.7711
722 0.7718
723 0.7712
724 0.7748
725 0.7732
726 0.767
727 0.7695
728 0.7683
729 0.7545
730 0.7516
731 0.7658
732 0.7644
733 0.7642
734 0.7646
735 0.7652
736 0.7574
737 0.7555
738 0.7549
739 0.7382
740 0.7396
741 0.7358
742 0.7306
743 0.742
744 0.7532
745 0.7458
746 0.7541
747 0.7515
748 0.7544
749 0.7504
750 0.7422
