# Top-of-atmosphere (TOA) lunar irradiance from Miller and Turner (2009)
# First column wavelength (nm), second column TOA irradiance# Lunar phase angle: 21
# Irradiance units: mW/m^2-micrometer

300 0.0009747
301 0.0007251
302 0.0009135
303 0.0008734
304 0.001236
305 0.001152
306 0.001176
307 0.001089
308 0.001267
309 0.001278
310 0.0009766
311 0.001298
312 0.001541
313 0.001339
314 0.001453
315 0.001336
316 0.001377
317 0.001259
318 0.001754
319 0.00135
320 0.001488
321 0.001839
322 0.00146
323 0.001531
324 0.001429
325 0.001713
326 0.00192
327 0.00219
328 0.002127
329 0.001979
330 0.002433
331 0.002248
332 0.002227
333 0.002162
334 0.002073
335 0.002218
336 0.002262
337 0.001792
338 0.001968
339 0.002114
340 0.002203
341 0.002434
342 0.002136
343 0.002378
344 0.002391
345 0.001726
346 0.002357
347 0.002189
348 0.002173
349 0.002267
350 0.002045
351 0.002704
352 0.002414
353 0.002164
354 0.002613
355 0.002782
356 0.00261
357 0.002334
358 0.002122
359 0.001585
360 0.002713
361 0.002561
362 0.002271
363 0.002598
364 0.002455
365 0.002651
366 0.003044
367 0.003243
368 0.003129
369 0.002794
370 0.003289
371 0.002918
372 0.003378
373 0.002792
374 0.002412
375 0.002463
376 0.002962
377 0.002908
378 0.003507
379 0.003768
380 0.002883
381 0.003378
382 0.003072
383 0.002205
384 0.001839
385 0.002668
386 0.002809
387 0.002847
388 0.002783
389 0.002678
390 0.003426
391 0.003508
392 0.004087
393 0.003093
394 0.001348
395 0.003123
396 0.004042
397 0.00215
398 0.002419
399 0.004613
400 0.004965
401 0.004991
402 0.005433
403 0.005522
404 0.005412
405 0.005292
406 0.005147
407 0.005016
408 0.00509
409 0.005164
410 0.005212
411 0.004832
412 0.005032
413 0.005233
414 0.005436
415 0.005461
416 0.005477
417 0.005552
418 0.005445
419 0.005445
420 0.005454
421 0.005592
422 0.005703
423 0.005511
424 0.005448
425 0.005585
426 0.00555
427 0.00553
428 0.005329
429 0.005329
430 0.00484
431 0.004044
432 0.005015
433 0.005546
434 0.005478
435 0.005368
436 0.005775
437 0.006104
438 0.005921
439 0.005697
440 0.00594
441 0.006204
442 0.006445
443 0.006649
444 0.006674
445 0.006685
446 0.006579
447 0.006543
448 0.006933
449 0.007026
450 0.007104
451 0.00743
452 0.007472
453 0.007129
454 0.006954
455 0.00728
456 0.007337
457 0.007545
458 0.007557
459 0.007379
460 0.007341
461 0.007464
462 0.00759
463 0.007671
464 0.007594
465 0.007434
466 0.007443
467 0.007393
468 0.007362
469 0.007502
470 0.007455
471 0.007356
472 0.007546
473 0.007788
474 0.007696
475 0.007874
476 0.007878
477 0.00778
478 0.007993
479 0.008
480 0.008004
481 0.007974
482 0.008044
483 0.00798
484 0.007887
485 0.007802
486 0.007107
487 0.006722
488 0.007285
489 0.007521
490 0.007838
491 0.007961
492 0.007692
493 0.007683
494 0.007786
495 0.007983
496 0.007996
497 0.007977
498 0.007924
499 0.007803
500 0.007801
501 0.007686
502 0.007543
503 0.007714
504 0.00787
505 0.007848
506 0.008148
507 0.008285
508 0.008175
509 0.008063
510 0.007946
511 0.007869
512 0.008035
513 0.007959
514 0.007778
515 0.007689
516 0.007816
517 0.007287
518 0.006862
519 0.007132
520 0.007644
521 0.007796
522 0.00795
523 0.007801
524 0.00795
525 0.008202
526 0.008123
527 0.007447
528 0.007635
529 0.008137
530 0.008229
531 0.008358
532 0.008386
533 0.008304
534 0.008199
535 0.008236
536 0.008492
537 0.008311
538 0.008322
539 0.008389
540 0.008211
541 0.008059
542 0.008246
543 0.008353
544 0.008436
545 0.008522
546 0.008554
547 0.008568
548 0.008479
549 0.008532
550 0.008646
551 0.008614
552 0.008657
553 0.008655
554 0.008642
555 0.008742
556 0.00871
557 0.008543
558 0.008451
559 0.008353
560 0.008252
561 0.008465
562 0.008554
563 0.008468
564 0.008521
565 0.008555
566 0.008492
567 0.008508
568 0.008671
569 0.008614
570 0.008603
571 0.008529
572 0.008555
573 0.0089
574 0.008955
575 0.008891
576 0.008772
577 0.008821
578 0.00885
579 0.008741
580 0.00882
581 0.008912
582 0.008967
583 0.00907
584 0.009091
585 0.009037
586 0.008887
587 0.008882
588 0.009016
589 0.008683
590 0.008325
591 0.008739
592 0.008958
593 0.008991
594 0.00899
595 0.009032
596 0.009004
597 0.009079
598 0.009081
599 0.009011
600 0.009044
601 0.009001
602 0.008908
603 0.008959
604 0.009137
605 0.009184
606 0.009146
607 0.009125
608 0.009101
609 0.009028
610 0.008992
611 0.009009
612 0.009037
613 0.009007
614 0.008908
615 0.008914
616 0.008856
617 0.008703
618 0.008852
619 0.008997
620 0.009066
621 0.009161
622 0.009111
623 0.009067
624 0.00903
625 0.008961
626 0.008942
627 0.009131
628 0.009256
629 0.009273
630 0.00918
631 0.00915
632 0.009032
633 0.009156
634 0.009119
635 0.009162
636 0.009172
637 0.00916
638 0.009299
639 0.009307
640 0.009134
641 0.009075
642 0.00905
643 0.009158
644 0.00914
645 0.009165
646 0.009099
647 0.009123
648 0.0092
649 0.009186
650 0.008926
651 0.009254
652 0.009314
653 0.009191
654 0.009128
655 0.008997
656 0.008415
657 0.007742
658 0.008579
659 0.009006
660 0.009048
661 0.009137
662 0.009201
663 0.009181
664 0.009083
665 0.009119
666 0.009153
667 0.009113
668 0.0091
669 0.009169
670 0.009156
671 0.009133
672 0.0091
673 0.009084
674 0.009077
675 0.009071
676 0.009066
677 0.009063
678 0.00906
679 0.009058
680 0.009057
681 0.009058
682 0.009059
683 0.009062
684 0.009065
685 0.00907
686 0.009075
687 0.009082
688 0.009089
689 0.009114
690 0.009171
691 0.009196
692 0.009159
693 0.009136
694 0.009161
695 0.009119
696 0.009121
697 0.009158
698 0.009043
699 0.009162
700 0.009196
701 0.00908
702 0.009031
703 0.009078
704 0.009131
705 0.009234
706 0.009184
707 0.009082
708 0.009102
709 0.00903
710 0.008978
711 0.009022
712 0.008908
713 0.008883
714 0.008911
715 0.008901
716 0.008877
717 0.008924
718 0.008922
719 0.008815
720 0.008827
721 0.008852
722 0.008865
723 0.008863
724 0.008909
725 0.008895
726 0.008828
727 0.008861
728 0.008852
729 0.008697
730 0.008669
731 0.008837
732 0.008825
733 0.008827
734 0.008837
735 0.008848
736 0.008763
737 0.008745
738 0.008742
739 0.008554
740 0.008574
741 0.008534
742 0.008479
743 0.008615
744 0.00875
745 0.008669
746 0.008769
747 0.008744
748 0.008782
749 0.00874
750 0.008649
