# Top-of-atmosphere (TOA) lunar irradiance from Miller and Turner (2009) by 10 nm increments
# First column wavelength (nm), second column TOA irradiance# Phase angle = 38
# Units = mW/m^2-micrometer

300 0.003444
310 0.003449
320 0.005251
330 0.008579
340 0.007761
350 0.007198
360 0.009544
370 0.01156
380 0.01012
390 0.01202
400 0.01741
410 0.01826
420 0.01909
430 0.01693
440 0.02076
450 0.02481
460 0.02562
470 0.026
480 0.02789
490 0.0273
500 0.02714
510 0.02763
520 0.02656
530 0.02857
540 0.02848
550 0.02997
560 0.02858
570 0.02977
580 0.0305
590 0.02877
600 0.03123
610 0.03102
620 0.03125
630 0.03162
640 0.03144
650 0.0307
660 0.0311
670 0.03144
680 0.03108
690 0.03145
700 0.03151
710 0.03074
720 0.0302
730 0.02963
740 0.02929
750 0.02952
