# Top-of-atmosphere (TOA) lunar irradiance from Miller and Turner (2009) by 10 nm increments
# First column wavelength (nm), second column TOA irradiance# Phase angle = 46
# Units = mW/m^2-micrometer

300 0.005918
310 0.005921
320 0.00901
330 0.01471
340 0.0133
350 0.01232
360 0.01633
370 0.01977
380 0.0173
390 0.02053
400 0.02971
410 0.03114
420 0.03254
430 0.02883
440 0.03533
450 0.04219
460 0.04354
470 0.04415
480 0.04733
490 0.04628
500 0.046
510 0.04678
520 0.04494
530 0.0483
540 0.04813
550 0.0506
560 0.04823
570 0.05021
580 0.0514
590 0.04844
600 0.05255
610 0.05217
620 0.05252
630 0.0531
640 0.05276
650 0.05148
660 0.05211
670 0.05266
680 0.05201
690 0.05259
700 0.05265
710 0.05133
720 0.05039
730 0.04941
740 0.0488
750 0.04916
