# Top-of-atmosphere (TOA) lunar irradiance from Miller and Turner (2009) by 10 nm increments
# First column wavelength (nm), second column TOA irradiance# Phase angle = 37
# Units = mW/m^2-micrometer

300 0.003201
310 0.003206
320 0.004881
330 0.007975
340 0.007215
350 0.006693
360 0.008875
370 0.01075
380 0.009416
390 0.01118
400 0.01619
410 0.01699
420 0.01776
430 0.01575
440 0.01932
450 0.02309
460 0.02384
470 0.0242
480 0.02596
490 0.02541
500 0.02527
510 0.02572
520 0.02473
530 0.0266
540 0.02652
550 0.02791
560 0.02662
570 0.02773
580 0.02841
590 0.0268
600 0.02909
610 0.0289
620 0.02912
630 0.02947
640 0.0293
650 0.02861
660 0.02898
670 0.02931
680 0.02897
690 0.02932
700 0.02938
710 0.02866
720 0.02816
730 0.02763
740 0.02731
750 0.02753
