# Top-of-atmosphere (TOA) lunar irradiance from Miller and Turner (2009)
# First column wavelength (nm), second column TOA irradiance# Lunar phase angle: 54
# Irradiance units: mW/m^2-micrometer

300 0.00992
301 0.007378
302 0.009293
303 0.008883
304 0.01257
305 0.01171
306 0.01196
307 0.01106
308 0.01287
309 0.01298
310 0.009917
311 0.01318
312 0.01564
313 0.01359
314 0.01474
315 0.01355
316 0.01396
317 0.01276
318 0.01778
319 0.01368
320 0.01508
321 0.01863
322 0.01478
323 0.0155
324 0.01446
325 0.01733
326 0.01942
327 0.02215
328 0.02151
329 0.02
330 0.02459
331 0.02271
332 0.0225
333 0.02184
334 0.02093
335 0.0224
336 0.02284
337 0.01808
338 0.01986
339 0.02133
340 0.02222
341 0.02455
342 0.02153
343 0.02396
344 0.0241
345 0.01739
346 0.02374
347 0.02204
348 0.02187
349 0.02282
350 0.02057
351 0.0272
352 0.02428
353 0.02176
354 0.02626
355 0.02796
356 0.02622
357 0.02345
358 0.02131
359 0.01591
360 0.02724
361 0.0257
362 0.02279
363 0.02606
364 0.02462
365 0.02658
366 0.03052
367 0.0325
368 0.03136
369 0.02799
370 0.03295
371 0.02922
372 0.03381
373 0.02794
374 0.02414
375 0.02464
376 0.02962
377 0.02908
378 0.03507
379 0.03766
380 0.02881
381 0.03374
382 0.03069
383 0.02202
384 0.01836
385 0.02663
386 0.02804
387 0.0284
388 0.02776
389 0.02671
390 0.03416
391 0.03497
392 0.04073
393 0.03081
394 0.01343
395 0.0311
396 0.04025
397 0.0214
398 0.02407
399 0.0459
400 0.04939
401 0.04964
402 0.05402
403 0.05489
404 0.05378
405 0.05258
406 0.05113
407 0.04982
408 0.05054
409 0.05127
410 0.05173
411 0.04794
412 0.04992
413 0.0519
414 0.0539
415 0.05413
416 0.05429
417 0.05501
418 0.05394
419 0.05393
420 0.054
421 0.05536
422 0.05645
423 0.05454
424 0.0539
425 0.05524
426 0.05488
427 0.05467
428 0.05267
429 0.05266
430 0.04782
431 0.03995
432 0.04952
433 0.05476
434 0.05407
435 0.05298
436 0.05697
437 0.06021
438 0.05839
439 0.05616
440 0.05855
441 0.06114
442 0.0635
443 0.06549
444 0.06572
445 0.06582
446 0.06476
447 0.06439
448 0.06821
449 0.06911
450 0.06986
451 0.07305
452 0.07345
453 0.07006
454 0.06832
455 0.07152
456 0.07206
457 0.07409
458 0.07418
459 0.07241
460 0.07203
461 0.07322
462 0.07444
463 0.07522
464 0.07444
465 0.07286
466 0.07293
467 0.07242
468 0.0721
469 0.07346
470 0.07298
471 0.07199
472 0.07384
473 0.07619
474 0.07527
475 0.07699
476 0.07702
477 0.07604
478 0.07811
479 0.07816
480 0.07818
481 0.07787
482 0.07853
483 0.07789
484 0.07696
485 0.07612
486 0.06932
487 0.06555
488 0.07102
489 0.07331
490 0.07638
491 0.07756
492 0.07492
493 0.07482
494 0.0758
495 0.0777
496 0.07781
497 0.07761
498 0.07708
499 0.07589
500 0.07585
501 0.07472
502 0.07331
503 0.07494
504 0.07644
505 0.07622
506 0.07911
507 0.08042
508 0.07933
509 0.07824
510 0.07708
511 0.07632
512 0.07791
513 0.07716
514 0.07538
515 0.07451
516 0.07572
517 0.07058
518 0.06644
519 0.06904
520 0.07398
521 0.07543
522 0.07691
523 0.07545
524 0.07687
525 0.07929
526 0.07851
527 0.07196
528 0.07376
529 0.07859
530 0.07946
531 0.08069
532 0.08094
533 0.08013
534 0.0791
535 0.07944
536 0.08188
537 0.08012
538 0.08021
539 0.08083
540 0.07911
541 0.07762
542 0.07941
543 0.08042
544 0.0812
545 0.08201
546 0.0823
547 0.08241
548 0.08154
549 0.08203
550 0.08311
551 0.08278
552 0.08317
553 0.08314
554 0.08299
555 0.08393
556 0.08361
557 0.08199
558 0.08108
559 0.08012
560 0.07914
561 0.08116
562 0.082
563 0.08115
564 0.08165
565 0.08195
566 0.08133
567 0.08147
568 0.083
569 0.08244
570 0.08232
571 0.08159
572 0.08182
573 0.0851
574 0.08561
575 0.08497
576 0.08382
577 0.08426
578 0.08452
579 0.08347
580 0.0842
581 0.08506
582 0.08556
583 0.08652
584 0.08671
585 0.08617
586 0.08472
587 0.08465
588 0.08592
589 0.08272
590 0.0793
591 0.08322
592 0.08529
593 0.08557
594 0.08555
595 0.08593
596 0.08564
597 0.08633
598 0.08634
599 0.08565
600 0.08594
601 0.08552
602 0.08461
603 0.08508
604 0.08675
605 0.08718
606 0.08679
607 0.08657
608 0.08633
609 0.08562
610 0.08526
611 0.0854
612 0.08564
613 0.08534
614 0.08438
615 0.08442
616 0.08385
617 0.08239
618 0.08378
619 0.08513
620 0.08576
621 0.08664
622 0.08615
623 0.08572
624 0.08534
625 0.08467
626 0.08447
627 0.08624
628 0.0874
629 0.08754
630 0.08664
631 0.08634
632 0.0852
633 0.08636
634 0.08599
635 0.08638
636 0.08644
637 0.08631
638 0.08761
639 0.08766
640 0.08601
641 0.08543
642 0.08518
643 0.08618
644 0.08599
645 0.0862
646 0.08556
647 0.08577
648 0.08647
649 0.08632
650 0.08386
651 0.08692
652 0.08746
653 0.08629
654 0.08568
655 0.08443
656 0.07895
657 0.07262
658 0.08045
659 0.08443
660 0.08481
661 0.08563
662 0.08621
663 0.086
664 0.08506
665 0.08538
666 0.08568
667 0.08528
668 0.08514
669 0.08577
670 0.08563
671 0.08539
672 0.08507
673 0.08489
674 0.08481
675 0.08474
676 0.08467
677 0.08462
678 0.08458
679 0.08454
680 0.08451
681 0.0845
682 0.08449
683 0.08449
684 0.08451
685 0.08453
686 0.08456
687 0.0846
688 0.08465
689 0.08486
690 0.08538
691 0.08559
692 0.08522
693 0.08499
694 0.08521
695 0.0848
696 0.08479
697 0.08512
698 0.08403
699 0.08512
700 0.08542
701 0.08432
702 0.08385
703 0.08426
704 0.08474
705 0.08567
706 0.08519
707 0.08422
708 0.08438
709 0.0837
710 0.0832
711 0.08359
712 0.08251
713 0.08226
714 0.0825
715 0.08239
716 0.08215
717 0.08257
718 0.08253
719 0.08152
720 0.08162
721 0.08183
722 0.08193
723 0.08189
724 0.0823
725 0.08215
726 0.08151
727 0.0818
728 0.0817
729 0.08025
730 0.07997
731 0.0815
732 0.08137
733 0.08137
734 0.08144
735 0.08153
736 0.08073
737 0.08054
738 0.0805
739 0.07874
740 0.07892
741 0.07853
742 0.078
743 0.07924
744 0.08046
745 0.07969
746 0.0806
747 0.08035
748 0.08068
749 0.08027
750 0.07942
