# Top-of-atmosphere (TOA) lunar irradiance from Miller and Turner (2009)
# First column wavelength (nm), second column TOA irradiance# Lunar phase angle: 116
# Irradiance units: mW/m^2-micrometer

300 0.123
301 0.09147
302 0.1152
303 0.1101
304 0.1557
305 0.145
306 0.148
307 0.1369
308 0.1592
309 0.1606
310 0.1226
311 0.1629
312 0.1933
313 0.1678
314 0.1821
315 0.1673
316 0.1723
317 0.1575
318 0.2193
319 0.1686
320 0.1859
321 0.2296
322 0.1822
323 0.1909
324 0.178
325 0.2134
326 0.239
327 0.2725
328 0.2645
329 0.246
330 0.3023
331 0.2791
332 0.2764
333 0.2682
334 0.257
335 0.2749
336 0.2802
337 0.2218
338 0.2435
339 0.2614
340 0.2723
341 0.3007
342 0.2637
343 0.2934
344 0.295
345 0.2128
346 0.2904
347 0.2696
348 0.2674
349 0.2789
350 0.2514
351 0.3322
352 0.2965
353 0.2656
354 0.3206
355 0.3411
356 0.3199
357 0.286
358 0.2598
359 0.194
360 0.3319
361 0.313
362 0.2775
363 0.3173
364 0.2996
365 0.3234
366 0.3712
367 0.3952
368 0.3812
369 0.3401
370 0.4002
371 0.3549
372 0.4105
373 0.3392
374 0.2929
375 0.2988
376 0.3592
377 0.3526
378 0.425
379 0.4563
380 0.3489
381 0.4086
382 0.3715
383 0.2665
384 0.2221
385 0.3221
386 0.339
387 0.3433
388 0.3354
389 0.3226
390 0.4126
391 0.4222
392 0.4916
393 0.3718
394 0.162
395 0.375
396 0.4852
397 0.258
398 0.29
399 0.5528
400 0.5947
401 0.5975
402 0.6501
403 0.6604
404 0.6469
405 0.6322
406 0.6146
407 0.5987
408 0.6071
409 0.6157
410 0.6211
411 0.5754
412 0.599
413 0.6226
414 0.6464
415 0.649
416 0.6506
417 0.6591
418 0.6461
419 0.6458
420 0.6465
421 0.6625
422 0.6753
423 0.6523
424 0.6445
425 0.6603
426 0.6558
427 0.6531
428 0.629
429 0.6288
430 0.5708
431 0.4766
432 0.5907
433 0.653
434 0.6447
435 0.6314
436 0.6788
437 0.7172
438 0.6953
439 0.6686
440 0.6968
441 0.7274
442 0.7553
443 0.7787
444 0.7812
445 0.7822
446 0.7694
447 0.7647
448 0.8099
449 0.8203
450 0.829
451 0.8666
452 0.871
453 0.8306
454 0.8098
455 0.8474
456 0.8536
457 0.8773
458 0.8781
459 0.857
460 0.8522
461 0.866
462 0.8802
463 0.8891
464 0.8797
465 0.8608
466 0.8614
467 0.8551
468 0.8511
469 0.8668
470 0.861
471 0.849
472 0.8706
473 0.898
474 0.8869
475 0.9069
476 0.907
477 0.8952
478 0.9193
479 0.9195
480 0.9195
481 0.9156
482 0.9232
483 0.9153
484 0.9042
485 0.894
486 0.814
487 0.7694
488 0.8334
489 0.86
490 0.8958
491 0.9093
492 0.8781
493 0.8767
494 0.8879
495 0.9099
496 0.911
497 0.9083
498 0.9018
499 0.8876
500 0.8869
501 0.8734
502 0.8567
503 0.8756
504 0.8928
505 0.8899
506 0.9234
507 0.9385
508 0.9255
509 0.9124
510 0.8987
511 0.8895
512 0.9078
513 0.8988
514 0.8778
515 0.8674
516 0.8813
517 0.8212
518 0.7729
519 0.8028
520 0.86
521 0.8767
522 0.8936
523 0.8763
524 0.8925
525 0.9204
526 0.911
527 0.8348
528 0.8554
529 0.9112
530 0.921
531 0.9349
532 0.9376
533 0.9279
534 0.9158
535 0.9194
536 0.9474
537 0.9267
538 0.9275
539 0.9345
540 0.9142
541 0.8968
542 0.9171
543 0.9286
544 0.9373
545 0.9463
546 0.9494
547 0.9504
548 0.9402
549 0.9455
550 0.9576
551 0.9536
552 0.9578
553 0.9571
554 0.9551
555 0.9657
556 0.9617
557 0.9428
558 0.9321
559 0.9208
560 0.9092
561 0.9322
562 0.9415
563 0.9315
564 0.9369
565 0.9402
566 0.9327
567 0.9341
568 0.9514
569 0.9447
570 0.943
571 0.9344
572 0.9367
573 0.9739
574 0.9795
575 0.972
576 0.9585
577 0.9633
578 0.9659
579 0.9536
580 0.9618
581 0.9713
582 0.9767
583 0.9874
584 0.9892
585 0.9828
586 0.966
587 0.9649
588 0.979
589 0.9423
590 0.9031
591 0.9474
592 0.9707
593 0.9737
594 0.9731
595 0.9771
596 0.9736
597 0.9812
598 0.9809
599 0.9728
600 0.9759
601 0.9707
602 0.9602
603 0.9653
604 0.9838
605 0.9884
606 0.9838
607 0.981
608 0.978
609 0.9696
610 0.9652
611 0.9665
612 0.969
613 0.9654
614 0.9542
615 0.9543
616 0.9476
617 0.9308
618 0.9462
619 0.9612
620 0.9681
621 0.9778
622 0.9719
623 0.9667
624 0.9622
625 0.9544
626 0.9519
627 0.9715
628 0.9843
629 0.9856
630 0.9752
631 0.9715
632 0.9584
633 0.9712
634 0.9667
635 0.9708
636 0.9712
637 0.9695
638 0.9838
639 0.9841
640 0.9652
641 0.9585
642 0.9553
643 0.9662
644 0.9638
645 0.966
646 0.9585
647 0.9605
648 0.9681
649 0.9662
650 0.9383
651 0.9723
652 0.9781
653 0.9647
654 0.9576
655 0.9433
656 0.8818
657 0.8109
658 0.8981
659 0.9423
660 0.9462
661 0.955
662 0.9612
663 0.9587
664 0.9479
665 0.9511
666 0.9542
667 0.9495
668 0.9476
669 0.9544
670 0.9526
671 0.9496
672 0.9458
673 0.9435
674 0.9423
675 0.9412
676 0.9403
677 0.9394
678 0.9386
679 0.9379
680 0.9374
681 0.9369
682 0.9366
683 0.9363
684 0.9362
685 0.9362
686 0.9363
687 0.9364
688 0.9367
689 0.9387
690 0.9442
691 0.9463
692 0.9419
693 0.9391
694 0.9412
695 0.9364
696 0.9361
697 0.9394
698 0.9271
699 0.9389
700 0.9419
701 0.9295
702 0.924
703 0.9283
704 0.9332
705 0.9433
706 0.9377
707 0.9268
708 0.9283
709 0.9204
710 0.9147
711 0.9187
712 0.9066
713 0.9036
714 0.9059
715 0.9045
716 0.9016
717 0.9059
718 0.9052
719 0.8939
720 0.8947
721 0.8967
722 0.8976
723 0.8968
724 0.9011
725 0.8991
726 0.892
727 0.8948
728 0.8935
729 0.8774
730 0.874
731 0.8905
732 0.8889
733 0.8886
734 0.8891
735 0.8898
736 0.8808
737 0.8785
738 0.8778
739 0.8584
740 0.86
741 0.8556
742 0.8496
743 0.8627
744 0.8758
745 0.8672
746 0.8768
747 0.8738
748 0.8772
749 0.8725
750 0.8629
