# Top-of-atmosphere (TOA) lunar irradiance from Miller and Turner (2009)
# First column wavelength (nm), second column TOA irradiance# Lunar phase angle: 4
# Irradiance units: mW/m^2-micrometer

300 0.0002973
301 0.0002211
302 0.0002785
303 0.0002662
304 0.0003766
305 0.0003508
306 0.0003582
307 0.0003314
308 0.0003856
309 0.000389
310 0.0002971
311 0.0003948
312 0.0004685
313 0.000407
314 0.0004417
315 0.0004059
316 0.0004181
317 0.0003822
318 0.0005324
319 0.0004096
320 0.0004515
321 0.000558
322 0.0004428
323 0.0004641
324 0.000433
325 0.000519
326 0.0005815
327 0.0006631
328 0.000644
329 0.0005989
330 0.0007363
331 0.00068
332 0.0006736
333 0.0006538
334 0.0006266
335 0.0006704
336 0.0006836
337 0.0005413
338 0.0005944
339 0.0006383
340 0.0006649
341 0.0007346
342 0.0006443
343 0.0007171
344 0.0007211
345 0.0005204
346 0.0007104
347 0.0006595
348 0.0006545
349 0.0006826
350 0.0006156
351 0.0008137
352 0.0007264
353 0.0006509
354 0.0007857
355 0.0008363
356 0.0007844
357 0.0007015
358 0.0006374
359 0.000476
360 0.0008147
361 0.0007687
362 0.0006815
363 0.0007795
364 0.0007363
365 0.0007949
366 0.0009127
367 0.0009719
368 0.0009377
369 0.0008368
370 0.0009851
371 0.0008737
372 0.001011
373 0.0008355
374 0.0007216
375 0.0007365
376 0.0008855
377 0.0008694
378 0.001048
379 0.001126
380 0.0008611
381 0.001009
382 0.0009172
383 0.0006581
384 0.0005486
385 0.0007959
386 0.0008379
387 0.0008488
388 0.0008295
389 0.0007981
390 0.001021
391 0.001045
392 0.001217
393 0.0009207
394 0.0004012
395 0.0009291
396 0.001202
397 0.0006394
398 0.0007191
399 0.001371
400 0.001475
401 0.001483
402 0.001614
403 0.00164
404 0.001606
405 0.00157
406 0.001527
407 0.001488
408 0.001509
409 0.001531
410 0.001545
411 0.001432
412 0.001491
413 0.00155
414 0.001609
415 0.001616
416 0.001621
417 0.001642
418 0.00161
419 0.00161
420 0.001612
421 0.001652
422 0.001685
423 0.001628
424 0.001609
425 0.001649
426 0.001638
427 0.001632
428 0.001572
429 0.001572
430 0.001427
431 0.001192
432 0.001478
433 0.001634
434 0.001613
435 0.001581
436 0.0017
437 0.001796
438 0.001742
439 0.001676
440 0.001747
441 0.001824
442 0.001894
443 0.001954
444 0.00196
445 0.001963
446 0.001932
447 0.001921
448 0.002035
449 0.002061
450 0.002084
451 0.002179
452 0.00219
453 0.002089
454 0.002037
455 0.002133
456 0.002149
457 0.002209
458 0.002212
459 0.002159
460 0.002147
461 0.002183
462 0.002219
463 0.002242
464 0.002219
465 0.002172
466 0.002174
467 0.002159
468 0.002149
469 0.002189
470 0.002175
471 0.002146
472 0.002201
473 0.002271
474 0.002243
475 0.002294
476 0.002295
477 0.002266
478 0.002327
479 0.002329
480 0.002329
481 0.00232
482 0.00234
483 0.002321
484 0.002293
485 0.002268
486 0.002065
487 0.001953
488 0.002116
489 0.002184
490 0.002275
491 0.00231
492 0.002231
493 0.002228
494 0.002258
495 0.002314
496 0.002317
497 0.002311
498 0.002295
499 0.00226
500 0.002258
501 0.002225
502 0.002183
503 0.002231
504 0.002276
505 0.002269
506 0.002355
507 0.002394
508 0.002362
509 0.002329
510 0.002294
511 0.002272
512 0.002319
513 0.002296
514 0.002243
515 0.002217
516 0.002253
517 0.0021
518 0.001977
519 0.002054
520 0.002201
521 0.002245
522 0.002289
523 0.002245
524 0.002287
525 0.002359
526 0.002336
527 0.002141
528 0.002194
529 0.002338
530 0.002364
531 0.0024
532 0.002408
533 0.002383
534 0.002353
535 0.002363
536 0.002435
537 0.002383
538 0.002385
539 0.002404
540 0.002352
541 0.002308
542 0.002361
543 0.002391
544 0.002414
545 0.002438
546 0.002447
547 0.00245
548 0.002424
549 0.002439
550 0.002471
551 0.002461
552 0.002472
553 0.002471
554 0.002467
555 0.002495
556 0.002485
557 0.002437
558 0.00241
559 0.002381
560 0.002352
561 0.002412
562 0.002437
563 0.002412
564 0.002426
565 0.002435
566 0.002417
567 0.002421
568 0.002466
569 0.002449
570 0.002446
571 0.002424
572 0.002431
573 0.002528
574 0.002543
575 0.002524
576 0.00249
577 0.002503
578 0.00251
579 0.002479
580 0.002501
581 0.002526
582 0.002541
583 0.002569
584 0.002575
585 0.002559
586 0.002516
587 0.002514
588 0.002551
589 0.002456
590 0.002354
591 0.002471
592 0.002532
593 0.00254
594 0.00254
595 0.002551
596 0.002542
597 0.002563
598 0.002563
599 0.002542
600 0.002551
601 0.002538
602 0.002511
603 0.002525
604 0.002574
605 0.002587
606 0.002576
607 0.002569
608 0.002562
609 0.002541
610 0.00253
611 0.002534
612 0.002541
613 0.002532
614 0.002503
615 0.002504
616 0.002487
617 0.002444
618 0.002485
619 0.002525
620 0.002544
621 0.00257
622 0.002555
623 0.002542
624 0.002531
625 0.002511
626 0.002505
627 0.002557
628 0.002592
629 0.002596
630 0.002569
631 0.00256
632 0.002526
633 0.002561
634 0.002549
635 0.002561
636 0.002563
637 0.002559
638 0.002597
639 0.002599
640 0.00255
641 0.002532
642 0.002525
643 0.002554
644 0.002549
645 0.002555
646 0.002536
647 0.002542
648 0.002563
649 0.002558
650 0.002485
651 0.002576
652 0.002592
653 0.002557
654 0.002539
655 0.002501
656 0.002339
657 0.002152
658 0.002383
659 0.002501
660 0.002512
661 0.002537
662 0.002554
663 0.002548
664 0.00252
665 0.002529
666 0.002538
667 0.002526
668 0.002522
669 0.00254
670 0.002536
671 0.002529
672 0.002519
673 0.002514
674 0.002511
675 0.002509
676 0.002507
677 0.002505
678 0.002504
679 0.002503
680 0.002502
681 0.002501
682 0.002501
683 0.002501
684 0.002501
685 0.002502
686 0.002503
687 0.002504
688 0.002506
689 0.002512
690 0.002527
691 0.002533
692 0.002522
693 0.002515
694 0.002521
695 0.002509
696 0.002509
697 0.002518
698 0.002486
699 0.002518
700 0.002527
701 0.002495
702 0.002481
703 0.002493
704 0.002507
705 0.002534
706 0.00252
707 0.002491
708 0.002496
709 0.002476
710 0.002461
711 0.002472
712 0.00244
713 0.002433
714 0.00244
715 0.002437
716 0.002429
717 0.002442
718 0.00244
719 0.00241
720 0.002413
721 0.002419
722 0.002422
723 0.002421
724 0.002433
725 0.002428
726 0.00241
727 0.002418
728 0.002415
729 0.002372
730 0.002364
731 0.002409
732 0.002405
733 0.002405
734 0.002407
735 0.002409
736 0.002386
737 0.00238
738 0.002379
739 0.002327
740 0.002332
741 0.00232
742 0.002305
743 0.002341
744 0.002377
745 0.002354
746 0.002381
747 0.002374
748 0.002383
749 0.002371
750 0.002346
