# Top-of-atmosphere (TOA) lunar irradiance from Miller and Turner (2009)
# First column wavelength (nm), second column TOA irradiance# Lunar phase angle: 112
# Irradiance units: mW/m^2-micrometer

300 0.111
301 0.08255
302 0.1039
303 0.09932
304 0.1405
305 0.1308
306 0.1336
307 0.1236
308 0.1437
309 0.1449
310 0.1107
311 0.147
312 0.1744
313 0.1515
314 0.1643
315 0.151
316 0.1555
317 0.1421
318 0.1979
319 0.1522
320 0.1678
321 0.2073
322 0.1644
323 0.1723
324 0.1607
325 0.1926
326 0.2157
327 0.2459
328 0.2388
329 0.222
330 0.2729
331 0.2519
332 0.2495
333 0.2421
334 0.232
335 0.2481
336 0.2529
337 0.2002
338 0.2198
339 0.236
340 0.2458
341 0.2715
342 0.238
343 0.2649
344 0.2663
345 0.1921
346 0.2622
347 0.2433
348 0.2414
349 0.2517
350 0.227
351 0.2999
352 0.2677
353 0.2398
354 0.2894
355 0.3079
356 0.2888
357 0.2582
358 0.2345
359 0.1751
360 0.2996
361 0.2826
362 0.2505
363 0.2864
364 0.2705
365 0.2919
366 0.3351
367 0.3568
368 0.3441
369 0.307
370 0.3613
371 0.3204
372 0.3706
373 0.3062
374 0.2644
375 0.2698
376 0.3243
377 0.3183
378 0.3837
379 0.412
380 0.315
381 0.3689
382 0.3354
383 0.2406
384 0.2005
385 0.2908
386 0.3061
387 0.31
388 0.3028
389 0.2913
390 0.3725
391 0.3812
392 0.4439
393 0.3357
394 0.1462
395 0.3386
396 0.4381
397 0.2329
398 0.2619
399 0.4992
400 0.537
401 0.5395
402 0.587
403 0.5963
404 0.5841
405 0.5709
406 0.555
407 0.5406
408 0.5482
409 0.556
410 0.5608
411 0.5196
412 0.5409
413 0.5622
414 0.5837
415 0.586
416 0.5875
417 0.5952
418 0.5834
419 0.5832
420 0.5838
421 0.5982
422 0.6098
423 0.589
424 0.582
425 0.5963
426 0.5922
427 0.5898
428 0.568
429 0.5678
430 0.5154
431 0.4304
432 0.5335
433 0.5897
434 0.5822
435 0.5702
436 0.613
437 0.6477
438 0.6279
439 0.6038
440 0.6293
441 0.6569
442 0.6821
443 0.7032
444 0.7055
445 0.7064
446 0.6948
447 0.6906
448 0.7315
449 0.7408
450 0.7487
451 0.7827
452 0.7867
453 0.7501
454 0.7314
455 0.7653
456 0.7709
457 0.7923
458 0.7931
459 0.774
460 0.7697
461 0.7822
462 0.795
463 0.8031
464 0.7946
465 0.7774
466 0.778
467 0.7723
468 0.7687
469 0.7829
470 0.7776
471 0.7668
472 0.7863
473 0.8111
474 0.8011
475 0.8192
476 0.8192
477 0.8086
478 0.8303
479 0.8306
480 0.8306
481 0.8271
482 0.8339
483 0.8268
484 0.8167
485 0.8076
486 0.7352
487 0.695
488 0.7528
489 0.7768
490 0.8092
491 0.8214
492 0.7932
493 0.792
494 0.8021
495 0.822
496 0.8229
497 0.8205
498 0.8147
499 0.8018
500 0.8012
501 0.789
502 0.7739
503 0.791
504 0.8066
505 0.8039
506 0.8342
507 0.8478
508 0.8361
509 0.8243
510 0.8119
511 0.8036
512 0.8201
513 0.8119
514 0.793
515 0.7836
516 0.7961
517 0.7419
518 0.6982
519 0.7253
520 0.777
521 0.792
522 0.8073
523 0.7917
524 0.8064
525 0.8315
526 0.8231
527 0.7542
528 0.7728
529 0.8232
530 0.8321
531 0.8447
532 0.8471
533 0.8384
534 0.8274
535 0.8306
536 0.856
537 0.8373
538 0.838
539 0.8443
540 0.826
541 0.8103
542 0.8287
543 0.839
544 0.8469
545 0.855
546 0.8578
547 0.8588
548 0.8495
549 0.8543
550 0.8653
551 0.8616
552 0.8655
553 0.8648
554 0.863
555 0.8726
556 0.869
557 0.8519
558 0.8422
559 0.832
560 0.8216
561 0.8423
562 0.8508
563 0.8417
564 0.8466
565 0.8496
566 0.8428
567 0.844
568 0.8597
569 0.8536
570 0.8521
571 0.8443
572 0.8465
573 0.8801
574 0.8851
575 0.8783
576 0.8661
577 0.8705
578 0.8729
579 0.8618
580 0.8691
581 0.8777
582 0.8827
583 0.8923
584 0.8939
585 0.8881
586 0.873
587 0.872
588 0.8848
589 0.8516
590 0.8161
591 0.8562
592 0.8772
593 0.88
594 0.8794
595 0.8831
596 0.8799
597 0.8867
598 0.8865
599 0.8792
600 0.882
601 0.8773
602 0.8678
603 0.8724
604 0.8892
605 0.8933
606 0.8891
607 0.8866
608 0.8839
609 0.8764
610 0.8724
611 0.8736
612 0.8758
613 0.8725
614 0.8624
615 0.8626
616 0.8565
617 0.8413
618 0.8553
619 0.8688
620 0.875
621 0.8838
622 0.8785
623 0.8738
624 0.8697
625 0.8627
626 0.8604
627 0.8781
628 0.8896
629 0.8909
630 0.8815
631 0.8781
632 0.8663
633 0.8778
634 0.8738
635 0.8775
636 0.8779
637 0.8763
638 0.8892
639 0.8895
640 0.8725
641 0.8664
642 0.8635
643 0.8734
644 0.8713
645 0.8732
646 0.8664
647 0.8683
648 0.8752
649 0.8734
650 0.8482
651 0.879
652 0.8842
653 0.8721
654 0.8657
655 0.8527
656 0.7972
657 0.7331
658 0.8119
659 0.8518
660 0.8554
661 0.8634
662 0.869
663 0.8667
664 0.8569
665 0.8599
666 0.8627
667 0.8584
668 0.8567
669 0.8628
670 0.8612
671 0.8585
672 0.855
673 0.853
674 0.8519
675 0.851
676 0.8501
677 0.8493
678 0.8486
679 0.848
680 0.8475
681 0.8471
682 0.8468
683 0.8465
684 0.8464
685 0.8464
686 0.8465
687 0.8467
688 0.8469
689 0.8488
690 0.8537
691 0.8556
692 0.8516
693 0.8491
694 0.851
695 0.8467
696 0.8463
697 0.8493
698 0.8382
699 0.8489
700 0.8516
701 0.8404
702 0.8355
703 0.8394
704 0.8438
705 0.8529
706 0.8478
707 0.838
708 0.8394
709 0.8323
710 0.8271
711 0.8308
712 0.8198
713 0.817
714 0.8192
715 0.8179
716 0.8153
717 0.8192
718 0.8186
719 0.8083
720 0.809
721 0.8109
722 0.8116
723 0.811
724 0.8148
725 0.8131
726 0.8066
727 0.8092
728 0.808
729 0.7934
730 0.7904
731 0.8053
732 0.8038
733 0.8036
734 0.804
735 0.8046
736 0.7965
737 0.7945
738 0.7938
739 0.7763
740 0.7777
741 0.7737
742 0.7683
743 0.7802
744 0.792
745 0.7843
746 0.793
747 0.7902
748 0.7933
749 0.7891
750 0.7804
