# Top-of-atmosphere (TOA) lunar irradiance from Miller and Turner (2009) by 10 nm increments
# First column wavelength (nm), second column TOA irradiance# Phase angle = 51
# Units = mW/m^2-micrometer

300 0.008204
310 0.008204
320 0.01248
330 0.02036
340 0.0184
350 0.01704
360 0.02257
370 0.02731
380 0.02389
390 0.02834
400 0.04098
410 0.04294
420 0.04485
430 0.03972
440 0.04865
450 0.05807
460 0.0599
470 0.06071
480 0.06505
490 0.06358
500 0.06316
510 0.06421
520 0.06165
530 0.06623
540 0.06596
550 0.06932
560 0.06604
570 0.06871
580 0.07031
590 0.06624
600 0.07181
610 0.07126
620 0.07171
630 0.07247
640 0.07197
650 0.07019
660 0.07101
670 0.07173
680 0.07081
690 0.07156
700 0.07162
710 0.06978
720 0.06848
730 0.06712
740 0.06626
750 0.0667
