# Top-of-atmosphere (TOA) lunar irradiance from Miller and Turner (2009) by 10 nm increments
# First column wavelength (nm), second column TOA irradiance# Phase angle = 40
# Units = mW/m^2-micrometer

300 0.003987
310 0.003992
320 0.006077
330 0.009926
340 0.008978
350 0.008326
360 0.01104
370 0.01337
380 0.01171
390 0.0139
400 0.02012
410 0.0211
420 0.02206
430 0.01956
440 0.02398
450 0.02866
460 0.02959
470 0.03002
480 0.0322
490 0.0315
500 0.03132
510 0.03188
520 0.03064
530 0.03295
540 0.03285
550 0.03456
560 0.03295
570 0.03432
580 0.03515
590 0.03315
600 0.03598
610 0.03574
620 0.036
630 0.03642
640 0.0362
650 0.03534
660 0.03579
670 0.03619
680 0.03576
690 0.03618
700 0.03625
710 0.03535
720 0.03473
730 0.03407
740 0.03367
750 0.03393
