# Top-of-atmosphere (TOA) lunar irradiance from Miller and Turner (2009)
# First column wavelength (nm), second column TOA irradiance# Lunar phase angle: 94
# Irradiance units: mW/m^2-micrometer

300 0.0652
301 0.04848
302 0.06105
303 0.05834
304 0.08252
305 0.07685
306 0.07846
307 0.07258
308 0.08441
309 0.08514
310 0.06501
311 0.08637
312 0.1025
313 0.089
314 0.09656
315 0.08873
316 0.09136
317 0.08351
318 0.1163
319 0.08945
320 0.09858
321 0.1218
322 0.09662
323 0.1013
324 0.09444
325 0.1132
326 0.1268
327 0.1445
328 0.1403
329 0.1305
330 0.1604
331 0.1481
332 0.1467
333 0.1423
334 0.1363
335 0.1459
336 0.1487
337 0.1177
338 0.1292
339 0.1387
340 0.1445
341 0.1596
342 0.14
343 0.1557
344 0.1566
345 0.1129
346 0.1542
347 0.1431
348 0.142
349 0.148
350 0.1335
351 0.1764
352 0.1574
353 0.141
354 0.1702
355 0.1811
356 0.1698
357 0.1518
358 0.1379
359 0.103
360 0.1762
361 0.1662
362 0.1473
363 0.1685
364 0.1591
365 0.1717
366 0.1971
367 0.2099
368 0.2024
369 0.1806
370 0.2126
371 0.1885
372 0.2181
373 0.1802
374 0.1556
375 0.1588
376 0.1908
377 0.1873
378 0.2258
379 0.2424
380 0.1854
381 0.2171
382 0.1974
383 0.1416
384 0.118
385 0.1712
386 0.1801
387 0.1825
388 0.1783
389 0.1715
390 0.2193
391 0.2244
392 0.2613
393 0.1976
394 0.0861
395 0.1994
396 0.2579
397 0.1371
398 0.1542
399 0.2939
400 0.3162
401 0.3177
402 0.3457
403 0.3511
404 0.3439
405 0.3362
406 0.3268
407 0.3184
408 0.3229
409 0.3274
410 0.3303
411 0.306
412 0.3186
413 0.3311
414 0.3438
415 0.3452
416 0.3461
417 0.3506
418 0.3437
419 0.3435
420 0.3439
421 0.3524
422 0.3593
423 0.347
424 0.3429
425 0.3513
426 0.3489
427 0.3475
428 0.3347
429 0.3346
430 0.3037
431 0.2536
432 0.3144
433 0.3475
434 0.3431
435 0.336
436 0.3613
437 0.3817
438 0.3701
439 0.3559
440 0.3709
441 0.3872
442 0.4021
443 0.4145
444 0.4159
445 0.4164
446 0.4096
447 0.4071
448 0.4312
449 0.4367
450 0.4414
451 0.4614
452 0.4638
453 0.4423
454 0.4312
455 0.4512
456 0.4546
457 0.4672
458 0.4677
459 0.4564
460 0.4539
461 0.4613
462 0.4688
463 0.4736
464 0.4686
465 0.4585
466 0.4588
467 0.4555
468 0.4534
469 0.4618
470 0.4587
471 0.4523
472 0.4638
473 0.4784
474 0.4726
475 0.4832
476 0.4833
477 0.477
478 0.4899
479 0.49
480 0.49
481 0.488
482 0.492
483 0.4878
484 0.4819
485 0.4765
486 0.4339
487 0.4101
488 0.4442
489 0.4584
490 0.4775
491 0.4848
492 0.4681
493 0.4674
494 0.4734
495 0.4851
496 0.4857
497 0.4843
498 0.4809
499 0.4733
500 0.4729
501 0.4657
502 0.4568
503 0.4669
504 0.4762
505 0.4746
506 0.4925
507 0.5005
508 0.4936
509 0.4867
510 0.4794
511 0.4745
512 0.4843
513 0.4794
514 0.4683
515 0.4627
516 0.4701
517 0.4381
518 0.4123
519 0.4283
520 0.4589
521 0.4678
522 0.4768
523 0.4676
524 0.4763
525 0.4912
526 0.4862
527 0.4455
528 0.4565
529 0.4863
530 0.4915
531 0.499
532 0.5004
533 0.4953
534 0.4888
535 0.4908
536 0.5057
537 0.4947
538 0.4952
539 0.4989
540 0.4881
541 0.4788
542 0.4897
543 0.4958
544 0.5004
545 0.5053
546 0.507
547 0.5075
548 0.502
549 0.5049
550 0.5114
551 0.5093
552 0.5115
553 0.5112
554 0.5101
555 0.5158
556 0.5137
557 0.5036
558 0.4979
559 0.4919
560 0.4857
561 0.498
562 0.503
563 0.4977
564 0.5006
565 0.5023
566 0.4983
567 0.4991
568 0.5083
569 0.5048
570 0.5039
571 0.4993
572 0.5006
573 0.5205
574 0.5235
575 0.5194
576 0.5123
577 0.5148
578 0.5163
579 0.5097
580 0.5141
581 0.5192
582 0.5221
583 0.5278
584 0.5288
585 0.5254
586 0.5164
587 0.5159
588 0.5234
589 0.5038
590 0.4828
591 0.5066
592 0.519
593 0.5206
594 0.5203
595 0.5225
596 0.5207
597 0.5247
598 0.5246
599 0.5203
600 0.5219
601 0.5192
602 0.5136
603 0.5163
604 0.5263
605 0.5287
606 0.5262
607 0.5248
608 0.5232
609 0.5187
610 0.5164
611 0.5171
612 0.5184
613 0.5165
614 0.5105
615 0.5106
616 0.5071
617 0.4981
618 0.5064
619 0.5144
620 0.5181
621 0.5233
622 0.5201
623 0.5174
624 0.515
625 0.5108
626 0.5095
627 0.52
628 0.5268
629 0.5276
630 0.522
631 0.52
632 0.5131
633 0.5199
634 0.5175
635 0.5197
636 0.52
637 0.5191
638 0.5267
639 0.5269
640 0.5168
641 0.5132
642 0.5116
643 0.5174
644 0.5162
645 0.5173
646 0.5133
647 0.5144
648 0.5185
649 0.5175
650 0.5026
651 0.5208
652 0.5239
653 0.5168
654 0.513
655 0.5053
656 0.4724
657 0.4344
658 0.4812
659 0.5048
660 0.507
661 0.5117
662 0.515
663 0.5137
664 0.5079
665 0.5097
666 0.5114
667 0.5088
668 0.5079
669 0.5115
670 0.5105
671 0.509
672 0.5069
673 0.5057
674 0.5051
675 0.5045
676 0.504
677 0.5036
678 0.5032
679 0.5028
680 0.5025
681 0.5023
682 0.5021
683 0.502
684 0.502
685 0.502
686 0.502
687 0.5021
688 0.5023
689 0.5034
690 0.5063
691 0.5075
692 0.5051
693 0.5037
694 0.5048
695 0.5022
696 0.5021
697 0.5038
698 0.4973
699 0.5036
700 0.5052
701 0.4986
702 0.4957
703 0.498
704 0.5007
705 0.5061
706 0.5031
707 0.4973
708 0.4981
709 0.4939
710 0.4908
711 0.493
712 0.4865
713 0.4849
714 0.4862
715 0.4854
716 0.4839
717 0.4862
718 0.4859
719 0.4798
720 0.4802
721 0.4813
722 0.4818
723 0.4814
724 0.4837
725 0.4827
726 0.4788
727 0.4804
728 0.4797
729 0.471
730 0.4693
731 0.4781
732 0.4773
733 0.4771
734 0.4774
735 0.4778
736 0.473
737 0.4718
738 0.4714
739 0.461
740 0.4619
741 0.4595
742 0.4563
743 0.4634
744 0.4704
745 0.4658
746 0.471
747 0.4694
748 0.4712
749 0.4687
750 0.4636
