# Top-of-atmosphere (TOA) lunar irradiance from Miller and Turner (2009)
# First column wavelength (nm), second column TOA irradiance# Lunar phase angle: 96
# Irradiance units: mW/m^2-micrometer

300 0.06963
301 0.05178
302 0.0652
303 0.0623
304 0.08812
305 0.08207
306 0.08379
307 0.07751
308 0.09014
309 0.09092
310 0.06942
311 0.09224
312 0.1094
313 0.09504
314 0.1031
315 0.09475
316 0.09756
317 0.08918
318 0.1242
319 0.09551
320 0.1053
321 0.13
322 0.1032
323 0.1081
324 0.1008
325 0.1209
326 0.1354
327 0.1543
328 0.1499
329 0.1393
330 0.1713
331 0.1581
332 0.1566
333 0.152
334 0.1456
335 0.1557
336 0.1588
337 0.1257
338 0.138
339 0.1481
340 0.1543
341 0.1704
342 0.1494
343 0.1663
344 0.1672
345 0.1206
346 0.1646
347 0.1528
348 0.1516
349 0.1581
350 0.1425
351 0.1883
352 0.1681
353 0.1506
354 0.1817
355 0.1934
356 0.1813
357 0.1621
358 0.1473
359 0.11
360 0.1882
361 0.1775
362 0.1573
363 0.1799
364 0.1699
365 0.1834
366 0.2105
367 0.2241
368 0.2161
369 0.1929
370 0.227
371 0.2012
372 0.2328
373 0.1924
374 0.1661
375 0.1695
376 0.2037
377 0.2
378 0.2411
379 0.2588
380 0.1979
381 0.2318
382 0.2107
383 0.1512
384 0.126
385 0.1827
386 0.1923
387 0.1948
388 0.1903
389 0.183
390 0.2341
391 0.2396
392 0.279
393 0.211
394 0.09191
395 0.2128
396 0.2753
397 0.1464
398 0.1646
399 0.3137
400 0.3375
401 0.3391
402 0.369
403 0.3748
404 0.3671
405 0.3589
406 0.3489
407 0.3398
408 0.3446
409 0.3495
410 0.3526
411 0.3267
412 0.34
413 0.3535
414 0.367
415 0.3685
416 0.3694
417 0.3742
418 0.3668
419 0.3667
420 0.3671
421 0.3762
422 0.3835
423 0.3704
424 0.366
425 0.375
426 0.3724
427 0.3709
428 0.3572
429 0.3571
430 0.3242
431 0.2707
432 0.3355
433 0.3709
434 0.3662
435 0.3587
436 0.3856
437 0.4074
438 0.395
439 0.3798
440 0.3959
441 0.4133
442 0.4291
443 0.4424
444 0.4439
445 0.4444
446 0.4372
447 0.4345
448 0.4602
449 0.4661
450 0.4711
451 0.4925
452 0.495
453 0.472
454 0.4602
455 0.4816
456 0.4851
457 0.4986
458 0.4991
459 0.4871
460 0.4844
461 0.4923
462 0.5003
463 0.5054
464 0.5001
465 0.4893
466 0.4897
467 0.4861
468 0.4838
469 0.4928
470 0.4895
471 0.4827
472 0.495
473 0.5106
474 0.5043
475 0.5157
476 0.5157
477 0.5091
478 0.5228
479 0.5229
480 0.5229
481 0.5207
482 0.525
483 0.5206
484 0.5143
485 0.5085
486 0.463
487 0.4376
488 0.474
489 0.4892
490 0.5096
491 0.5173
492 0.4995
493 0.4988
494 0.5051
495 0.5177
496 0.5183
497 0.5168
498 0.5131
499 0.505
500 0.5046
501 0.497
502 0.4875
503 0.4982
504 0.5081
505 0.5064
506 0.5255
507 0.5341
508 0.5267
509 0.5193
510 0.5115
511 0.5063
512 0.5167
513 0.5116
514 0.4996
515 0.4937
516 0.5016
517 0.4675
518 0.44
519 0.457
520 0.4896
521 0.4991
522 0.5087
523 0.4989
524 0.5082
525 0.524
526 0.5187
527 0.4753
528 0.4871
529 0.5188
530 0.5244
531 0.5324
532 0.5339
533 0.5284
534 0.5215
535 0.5236
536 0.5396
537 0.5278
538 0.5283
539 0.5322
540 0.5207
541 0.5108
542 0.5224
543 0.529
544 0.5339
545 0.5391
546 0.5409
547 0.5415
548 0.5356
549 0.5387
550 0.5456
551 0.5433
552 0.5457
553 0.5453
554 0.5442
555 0.5502
556 0.548
557 0.5372
558 0.5312
559 0.5247
560 0.5181
561 0.5312
562 0.5366
563 0.5309
564 0.534
565 0.5358
566 0.5316
567 0.5324
568 0.5423
569 0.5385
570 0.5375
571 0.5326
572 0.534
573 0.5552
574 0.5584
575 0.5541
576 0.5464
577 0.5492
578 0.5507
579 0.5437
580 0.5484
581 0.5538
582 0.5569
583 0.563
584 0.564
585 0.5604
586 0.5509
587 0.5503
588 0.5583
589 0.5374
590 0.515
591 0.5403
592 0.5536
593 0.5553
594 0.555
595 0.5573
596 0.5553
597 0.5597
598 0.5595
599 0.5549
600 0.5567
601 0.5538
602 0.5478
603 0.5507
604 0.5613
605 0.5639
606 0.5613
607 0.5597
608 0.558
609 0.5533
610 0.5508
611 0.5515
612 0.553
613 0.5509
614 0.5445
615 0.5446
616 0.5408
617 0.5312
618 0.54
619 0.5486
620 0.5525
621 0.5581
622 0.5548
623 0.5518
624 0.5492
625 0.5448
626 0.5434
627 0.5546
628 0.5619
629 0.5627
630 0.5567
631 0.5546
632 0.5472
633 0.5545
634 0.5519
635 0.5543
636 0.5546
637 0.5536
638 0.5617
639 0.5619
640 0.5512
641 0.5473
642 0.5456
643 0.5518
644 0.5505
645 0.5517
646 0.5474
647 0.5486
648 0.553
649 0.5519
650 0.536
651 0.5554
652 0.5587
653 0.5511
654 0.547
655 0.5389
656 0.5038
657 0.4633
658 0.5131
659 0.5384
660 0.5406
661 0.5457
662 0.5492
663 0.5478
664 0.5416
665 0.5435
666 0.5453
667 0.5426
668 0.5415
669 0.5454
670 0.5444
671 0.5427
672 0.5405
673 0.5393
674 0.5386
675 0.538
676 0.5374
677 0.5369
678 0.5365
679 0.5361
680 0.5358
681 0.5356
682 0.5354
683 0.5353
684 0.5352
685 0.5352
686 0.5353
687 0.5354
688 0.5356
689 0.5367
690 0.5399
691 0.5411
692 0.5386
693 0.537
694 0.5382
695 0.5355
696 0.5353
697 0.5372
698 0.5302
699 0.537
700 0.5387
701 0.5316
702 0.5285
703 0.531
704 0.5338
705 0.5396
706 0.5364
707 0.5302
708 0.531
709 0.5266
710 0.5233
711 0.5256
712 0.5187
713 0.517
714 0.5183
715 0.5175
716 0.5159
717 0.5183
718 0.518
719 0.5115
720 0.512
721 0.5132
722 0.5136
723 0.5132
724 0.5157
725 0.5146
726 0.5105
727 0.5121
728 0.5114
729 0.5022
730 0.5003
731 0.5097
732 0.5088
733 0.5087
734 0.5089
735 0.5093
736 0.5042
737 0.5029
738 0.5025
739 0.4914
740 0.4924
741 0.4898
742 0.4864
743 0.494
744 0.5015
745 0.4966
746 0.5021
747 0.5004
748 0.5023
749 0.4996
750 0.4942
