# Top-of-atmosphere (TOA) lunar irradiance from Miller and Turner (2009) by 10 nm increments
# First column wavelength (nm), second column TOA irradiance# Phase angle = 41
# Units = mW/m^2-micrometer

300 0.004259
310 0.004263
320 0.006489
330 0.0106
340 0.009586
350 0.008889
360 0.01178
370 0.01427
380 0.01249
390 0.01483
400 0.02147
410 0.02252
420 0.02354
430 0.02087
440 0.02558
450 0.03057
460 0.03155
470 0.03201
480 0.03433
490 0.03359
500 0.0334
510 0.03398
520 0.03266
530 0.03512
540 0.03501
550 0.03682
560 0.03511
570 0.03657
580 0.03745
590 0.03531
600 0.03832
610 0.03806
620 0.03834
630 0.03878
640 0.03855
650 0.03763
660 0.03811
670 0.03852
680 0.03807
690 0.03851
700 0.03857
710 0.03762
720 0.03695
730 0.03625
740 0.03582
750 0.03609
