# Top-of-atmosphere (TOA) lunar irradiance from Miller and Turner (2009)
# First column wavelength (nm), second column TOA irradiance# Lunar phase angle: 85
# Irradiance units: mW/m^2-micrometer

300 0.04718
301 0.03508
302 0.04418
303 0.04222
304 0.05972
305 0.05562
306 0.05678
307 0.05253
308 0.06109
309 0.06162
310 0.04706
311 0.06252
312 0.07417
313 0.06443
314 0.0699
315 0.06423
316 0.06614
317 0.06046
318 0.08419
319 0.06476
320 0.07137
321 0.08818
322 0.06996
323 0.07332
324 0.06838
325 0.08196
326 0.0918
327 0.1047
328 0.1016
329 0.09449
330 0.1162
331 0.1072
332 0.1062
333 0.1031
334 0.09876
335 0.1056
336 0.1077
337 0.08526
338 0.09361
339 0.1005
340 0.1047
341 0.1156
342 0.1014
343 0.1128
344 0.1134
345 0.08184
346 0.1117
347 0.1037
348 0.1029
349 0.1073
350 0.09671
351 0.1278
352 0.1141
353 0.1022
354 0.1233
355 0.1313
356 0.1231
357 0.1101
358 0.09997
359 0.07465
360 0.1277
361 0.1205
362 0.1068
363 0.1221
364 0.1154
365 0.1245
366 0.1429
367 0.1522
368 0.1468
369 0.131
370 0.1541
371 0.1367
372 0.1581
373 0.1307
374 0.1128
375 0.1151
376 0.1384
377 0.1358
378 0.1638
379 0.1758
380 0.1345
381 0.1575
382 0.1432
383 0.1027
384 0.0856
385 0.1242
386 0.1307
387 0.1324
388 0.1293
389 0.1244
390 0.1591
391 0.1628
392 0.1896
393 0.1434
394 0.06247
395 0.1446
396 0.1872
397 0.0995
398 0.1119
399 0.2133
400 0.2294
401 0.2305
402 0.2509
403 0.2548
404 0.2496
405 0.244
406 0.2372
407 0.2311
408 0.2344
409 0.2377
410 0.2398
411 0.2222
412 0.2313
413 0.2404
414 0.2496
415 0.2506
416 0.2513
417 0.2545
418 0.2495
419 0.2494
420 0.2497
421 0.2559
422 0.2609
423 0.252
424 0.249
425 0.2551
426 0.2534
427 0.2524
428 0.2431
429 0.243
430 0.2206
431 0.1842
432 0.2283
433 0.2524
434 0.2492
435 0.2441
436 0.2625
437 0.2773
438 0.2689
439 0.2585
440 0.2695
441 0.2813
442 0.2921
443 0.3012
444 0.3022
445 0.3026
446 0.2976
447 0.2959
448 0.3134
449 0.3174
450 0.3208
451 0.3354
452 0.3371
453 0.3214
454 0.3134
455 0.328
456 0.3304
457 0.3396
458 0.34
459 0.3318
460 0.3299
461 0.3353
462 0.3408
463 0.3443
464 0.3407
465 0.3334
466 0.3336
467 0.3312
468 0.3297
469 0.3358
470 0.3335
471 0.3289
472 0.3373
473 0.3479
474 0.3437
475 0.3514
476 0.3515
477 0.347
478 0.3563
479 0.3564
480 0.3564
481 0.355
482 0.3579
483 0.3549
484 0.3506
485 0.3467
486 0.3156
487 0.2984
488 0.3232
489 0.3335
490 0.3474
491 0.3527
492 0.3406
493 0.3401
494 0.3445
495 0.353
496 0.3534
497 0.3524
498 0.3499
499 0.3445
500 0.3442
501 0.339
502 0.3325
503 0.3399
504 0.3466
505 0.3455
506 0.3585
507 0.3644
508 0.3593
509 0.3543
510 0.349
511 0.3454
512 0.3526
513 0.3491
514 0.3409
515 0.3369
516 0.3423
517 0.319
518 0.3003
519 0.3119
520 0.3342
521 0.3406
522 0.3472
523 0.3406
524 0.3469
525 0.3577
526 0.3541
527 0.3245
528 0.3325
529 0.3542
530 0.358
531 0.3635
532 0.3646
533 0.3608
534 0.3561
535 0.3575
536 0.3685
537 0.3604
538 0.3608
539 0.3635
540 0.3556
541 0.3489
542 0.3568
543 0.3613
544 0.3647
545 0.3682
546 0.3695
547 0.3699
548 0.3659
549 0.368
550 0.3727
551 0.3712
552 0.3729
553 0.3726
554 0.3719
555 0.376
556 0.3745
557 0.3671
558 0.363
559 0.3586
560 0.3541
561 0.3631
562 0.3667
563 0.3629
564 0.365
565 0.3663
566 0.3634
567 0.3639
568 0.3707
569 0.3681
570 0.3675
571 0.3641
572 0.3651
573 0.3796
574 0.3818
575 0.3789
576 0.3736
577 0.3755
578 0.3766
579 0.3718
580 0.375
581 0.3787
582 0.3809
583 0.3851
584 0.3858
585 0.3833
586 0.3768
587 0.3764
588 0.3819
589 0.3676
590 0.3523
591 0.3697
592 0.3788
593 0.38
594 0.3797
595 0.3813
596 0.38
597 0.383
598 0.3829
599 0.3797
600 0.381
601 0.379
602 0.3749
603 0.3769
604 0.3842
605 0.386
606 0.3842
607 0.3831
608 0.382
609 0.3787
610 0.377
611 0.3776
612 0.3786
613 0.3772
614 0.3728
615 0.3729
616 0.3703
617 0.3637
618 0.3698
619 0.3757
620 0.3784
621 0.3822
622 0.3799
623 0.3779
624 0.3762
625 0.3731
626 0.3722
627 0.3799
628 0.3849
629 0.3854
630 0.3814
631 0.3799
632 0.3749
633 0.3799
634 0.3781
635 0.3797
636 0.38
637 0.3793
638 0.3849
639 0.385
640 0.3777
641 0.3751
642 0.3739
643 0.3782
644 0.3772
645 0.3781
646 0.3752
647 0.376
648 0.379
649 0.3783
650 0.3674
651 0.3807
652 0.383
653 0.3778
654 0.375
655 0.3694
656 0.3454
657 0.3176
658 0.3518
659 0.3691
660 0.3707
661 0.3742
662 0.3766
663 0.3756
664 0.3714
665 0.3727
666 0.374
667 0.3721
668 0.3714
669 0.3741
670 0.3734
671 0.3723
672 0.3708
673 0.3699
674 0.3695
675 0.3691
676 0.3687
677 0.3684
678 0.3681
679 0.3679
680 0.3677
681 0.3675
682 0.3674
683 0.3673
684 0.3673
685 0.3673
686 0.3674
687 0.3674
688 0.3676
689 0.3684
690 0.3706
691 0.3714
692 0.3697
693 0.3686
694 0.3695
695 0.3676
696 0.3675
697 0.3688
698 0.364
699 0.3687
700 0.3699
701 0.365
702 0.3629
703 0.3646
704 0.3666
705 0.3705
706 0.3683
707 0.3641
708 0.3647
709 0.3616
710 0.3594
711 0.361
712 0.3563
713 0.3551
714 0.356
715 0.3555
716 0.3544
717 0.3561
718 0.3558
719 0.3514
720 0.3517
721 0.3526
722 0.3529
723 0.3527
724 0.3543
725 0.3536
726 0.3508
727 0.3519
728 0.3514
729 0.3451
730 0.3438
731 0.3503
732 0.3497
733 0.3496
734 0.3498
735 0.3501
736 0.3466
737 0.3457
738 0.3455
739 0.3378
740 0.3385
741 0.3368
742 0.3344
743 0.3396
744 0.3448
745 0.3414
746 0.3452
747 0.3441
748 0.3454
749 0.3436
750 0.3399
