# Top-of-atmosphere (TOA) lunar irradiance from Miller and Turner (2009)
# First column wavelength (nm), second column TOA irradiance# Lunar phase angle: 119
# Irradiance units: mW/m^2-micrometer

300 0.1328
301 0.09878
302 0.1244
303 0.1189
304 0.1681
305 0.1566
306 0.1598
307 0.1478
308 0.1719
309 0.1734
310 0.1324
311 0.1759
312 0.2087
313 0.1813
314 0.1966
315 0.1807
316 0.186
317 0.1701
318 0.2368
319 0.1821
320 0.2007
321 0.248
322 0.1967
323 0.2062
324 0.1923
325 0.2304
326 0.2581
327 0.2942
328 0.2857
329 0.2656
330 0.3264
331 0.3014
332 0.2985
333 0.2896
334 0.2775
335 0.2968
336 0.3026
337 0.2395
338 0.263
339 0.2823
340 0.294
341 0.3247
342 0.2848
343 0.3168
344 0.3185
345 0.2298
346 0.3136
347 0.2911
348 0.2888
349 0.3011
350 0.2715
351 0.3588
352 0.3202
353 0.2868
354 0.3461
355 0.3683
356 0.3454
357 0.3088
358 0.2805
359 0.2094
360 0.3583
361 0.338
362 0.2996
363 0.3426
364 0.3235
365 0.3491
366 0.4008
367 0.4267
368 0.4115
369 0.3672
370 0.4321
371 0.3832
372 0.4432
373 0.3662
374 0.3162
375 0.3227
376 0.3878
377 0.3807
378 0.4589
379 0.4927
380 0.3767
381 0.4412
382 0.4011
383 0.2877
384 0.2398
385 0.3478
386 0.366
387 0.3707
388 0.3621
389 0.3483
390 0.4454
391 0.4558
392 0.5308
393 0.4014
394 0.1749
395 0.4049
396 0.5238
397 0.2785
398 0.3131
399 0.5968
400 0.642
401 0.6451
402 0.7019
403 0.713
404 0.6983
405 0.6825
406 0.6635
407 0.6463
408 0.6555
409 0.6647
410 0.6705
411 0.6212
412 0.6466
413 0.6722
414 0.6978
415 0.7006
416 0.7024
417 0.7115
418 0.6974
419 0.6972
420 0.6979
421 0.7152
422 0.729
423 0.7041
424 0.6957
425 0.7128
426 0.7079
427 0.705
428 0.679
429 0.6788
430 0.6161
431 0.5145
432 0.6377
433 0.7049
434 0.6959
435 0.6816
436 0.7328
437 0.7742
438 0.7506
439 0.7217
440 0.7521
441 0.7852
442 0.8153
443 0.8406
444 0.8433
445 0.8443
446 0.8305
447 0.8255
448 0.8742
449 0.8854
450 0.8948
451 0.9354
452 0.9402
453 0.8965
454 0.8741
455 0.9147
456 0.9213
457 0.947
458 0.9478
459 0.925
460 0.9198
461 0.9348
462 0.9501
463 0.9597
464 0.9495
465 0.9291
466 0.9297
467 0.9229
468 0.9186
469 0.9356
470 0.9293
471 0.9164
472 0.9396
473 0.9692
474 0.9572
475 0.9788
476 0.9789
477 0.9662
478 0.9922
479 0.9925
480 0.9924
481 0.9883
482 0.9964
483 0.9879
484 0.9759
485 0.9649
486 0.8785
487 0.8304
488 0.8995
489 0.9282
490 0.9668
491 0.9814
492 0.9477
493 0.9462
494 0.9583
495 0.982
496 0.9831
497 0.9803
498 0.9733
499 0.958
500 0.9572
501 0.9426
502 0.9246
503 0.9449
504 0.9636
505 0.9604
506 0.9966
507 1.013
508 0.9988
509 0.9847
510 0.9699
511 0.9599
512 0.9797
513 0.9699
514 0.9473
515 0.9361
516 0.951
517 0.8862
518 0.834
519 0.8663
520 0.9281
521 0.946
522 0.9643
523 0.9457
524 0.9632
525 0.9932
526 0.9831
527 0.9008
528 0.9231
529 0.9832
530 0.9938
531 1.009
532 1.012
533 1.001
534 0.9882
535 0.9921
536 1.022
537 1
538 1.001
539 1.008
540 0.9865
541 0.9677
542 0.9897
543 1.002
544 1.011
545 1.021
546 1.024
547 1.026
548 1.014
549 1.02
550 1.033
551 1.029
552 1.034
553 1.033
554 1.031
555 1.042
556 1.038
557 1.017
558 1.006
559 0.9936
560 0.981
561 1.006
562 1.016
563 1.005
564 1.011
565 1.014
566 1.006
567 1.008
568 1.027
569 1.019
570 1.017
571 1.008
572 1.011
573 1.051
574 1.057
575 1.049
576 1.034
577 1.039
578 1.042
579 1.029
580 1.038
581 1.048
582 1.054
583 1.065
584 1.067
585 1.06
586 1.042
587 1.041
588 1.056
589 1.017
590 0.9743
591 1.022
592 1.047
593 1.05
594 1.05
595 1.054
596 1.05
597 1.059
598 1.058
599 1.05
600 1.053
601 1.047
602 1.036
603 1.041
604 1.061
605 1.066
606 1.061
607 1.058
608 1.055
609 1.046
610 1.041
611 1.043
612 1.045
613 1.041
614 1.029
615 1.03
616 1.022
617 1.004
618 1.021
619 1.037
620 1.044
621 1.055
622 1.048
623 1.043
624 1.038
625 1.03
626 1.027
627 1.048
628 1.062
629 1.063
630 1.052
631 1.048
632 1.034
633 1.048
634 1.043
635 1.047
636 1.048
637 1.046
638 1.061
639 1.062
640 1.041
641 1.034
642 1.03
643 1.042
644 1.04
645 1.042
646 1.034
647 1.036
648 1.044
649 1.042
650 1.012
651 1.049
652 1.055
653 1.041
654 1.033
655 1.017
656 0.9512
657 0.8747
658 0.9687
659 1.016
660 1.021
661 1.03
662 1.037
663 1.034
664 1.022
665 1.026
666 1.029
667 1.024
668 1.022
669 1.029
670 1.027
671 1.024
672 1.02
673 1.018
674 1.016
675 1.015
676 1.014
677 1.013
678 1.012
679 1.012
680 1.011
681 1.011
682 1.01
683 1.01
684 1.01
685 1.01
686 1.01
687 1.01
688 1.01
689 1.012
690 1.018
691 1.021
692 1.016
693 1.013
694 1.015
695 1.01
696 1.01
697 1.013
698 0.9999
699 1.013
700 1.016
701 1.002
702 0.9965
703 1.001
704 1.006
705 1.017
706 1.011
707 0.9995
708 1.001
709 0.9926
710 0.9865
711 0.9908
712 0.9777
713 0.9744
714 0.977
715 0.9754
716 0.9723
717 0.9769
718 0.9762
719 0.964
720 0.9648
721 0.9671
722 0.9679
723 0.9672
724 0.9717
725 0.9696
726 0.9619
727 0.965
728 0.9635
729 0.9461
730 0.9425
731 0.9603
732 0.9585
733 0.9582
734 0.9587
735 0.9595
736 0.9498
737 0.9473
738 0.9465
739 0.9256
740 0.9274
741 0.9226
742 0.9161
743 0.9303
744 0.9444
745 0.9351
746 0.9455
747 0.9422
748 0.9459
749 0.9408
750 0.9305
