# Top-of-atmosphere (TOA) lunar irradiance from Miller and Turner (2009)
# First column wavelength (nm), second column TOA irradiance# Lunar phase angle: 62
# Irradiance units: mW/m^2-micrometer

300 0.01614
301 0.01201
302 0.01512
303 0.01445
304 0.02044
305 0.01904
306 0.01945
307 0.01799
308 0.02093
309 0.02111
310 0.01612
311 0.02143
312 0.02542
313 0.02209
314 0.02397
315 0.02203
316 0.02268
317 0.02074
318 0.02888
319 0.02222
320 0.02449
321 0.03026
322 0.02401
323 0.02517
324 0.02348
325 0.02815
326 0.03153
327 0.03596
328 0.03492
329 0.03247
330 0.03992
331 0.03686
332 0.03651
333 0.03544
334 0.03396
335 0.03633
336 0.03705
337 0.02933
338 0.03221
339 0.03459
340 0.03603
341 0.0398
342 0.03491
343 0.03885
344 0.03906
345 0.02819
346 0.03848
347 0.03572
348 0.03545
349 0.03697
350 0.03334
351 0.04406
352 0.03933
353 0.03524
354 0.04254
355 0.04528
356 0.04247
357 0.03797
358 0.0345
359 0.02577
360 0.0441
361 0.0416
362 0.03688
363 0.04218
364 0.03984
365 0.04301
366 0.04938
367 0.05259
368 0.05073
369 0.04527
370 0.05329
371 0.04726
372 0.05468
373 0.04519
374 0.03903
375 0.03983
376 0.04789
377 0.04701
378 0.05668
379 0.06087
380 0.04655
381 0.05453
382 0.04958
383 0.03557
384 0.02966
385 0.04302
386 0.04529
387 0.04587
388 0.04483
389 0.04313
390 0.05516
391 0.05646
392 0.06576
393 0.04974
394 0.02167
395 0.05019
396 0.06495
397 0.03454
398 0.03884
399 0.07405
400 0.07968
401 0.08007
402 0.08714
403 0.08853
404 0.08674
405 0.08479
406 0.08245
407 0.08033
408 0.08148
409 0.08264
410 0.08338
411 0.07727
412 0.08045
413 0.08364
414 0.08686
415 0.08722
416 0.08746
417 0.08862
418 0.08688
419 0.08687
420 0.08697
421 0.08914
422 0.09089
423 0.08781
424 0.08678
425 0.08893
426 0.08833
427 0.08799
428 0.08476
429 0.08475
430 0.07694
431 0.06427
432 0.07967
433 0.08809
434 0.08698
435 0.08521
436 0.09163
437 0.09682
438 0.09389
439 0.0903
440 0.09413
441 0.09829
442 0.1021
443 0.1053
444 0.1056
445 0.1058
446 0.1041
447 0.1035
448 0.1096
449 0.111
450 0.1122
451 0.1173
452 0.118
453 0.1125
454 0.1097
455 0.1148
456 0.1157
457 0.1189
458 0.1191
459 0.1162
460 0.1156
461 0.1175
462 0.1195
463 0.1207
464 0.1194
465 0.1169
466 0.117
467 0.1162
468 0.1156
469 0.1178
470 0.117
471 0.1154
472 0.1184
473 0.1221
474 0.1207
475 0.1234
476 0.1234
477 0.1219
478 0.1252
479 0.1252
480 0.1253
481 0.1248
482 0.1258
483 0.1248
484 0.1233
485 0.1219
486 0.111
487 0.105
488 0.1137
489 0.1174
490 0.1223
491 0.1241
492 0.1199
493 0.1197
494 0.1213
495 0.1243
496 0.1245
497 0.1242
498 0.1233
499 0.1214
500 0.1213
501 0.1195
502 0.1172
503 0.1198
504 0.1222
505 0.1219
506 0.1265
507 0.1286
508 0.1268
509 0.125
510 0.1232
511 0.1219
512 0.1245
513 0.1233
514 0.1204
515 0.119
516 0.1209
517 0.1127
518 0.1061
519 0.1102
520 0.1181
521 0.1204
522 0.1228
523 0.1204
524 0.1227
525 0.1265
526 0.1253
527 0.1148
528 0.1177
529 0.1254
530 0.1268
531 0.1287
532 0.1291
533 0.1278
534 0.1261
535 0.1267
536 0.1306
537 0.1277
538 0.1279
539 0.1289
540 0.1261
541 0.1237
542 0.1265
543 0.1282
544 0.1294
545 0.1307
546 0.1311
547 0.1313
548 0.1299
549 0.1307
550 0.1323
551 0.1318
552 0.1324
553 0.1324
554 0.1321
555 0.1336
556 0.1331
557 0.1305
558 0.129
559 0.1275
560 0.1259
561 0.1291
562 0.1304
563 0.1291
564 0.1299
565 0.1303
566 0.1293
567 0.1295
568 0.132
569 0.1311
570 0.1309
571 0.1297
572 0.1301
573 0.1352
574 0.136
575 0.135
576 0.1332
577 0.1339
578 0.1343
579 0.1326
580 0.1338
581 0.1351
582 0.1359
583 0.1374
584 0.1377
585 0.1368
586 0.1345
587 0.1344
588 0.1364
589 0.1313
590 0.1258
591 0.1321
592 0.1353
593 0.1358
594 0.1357
595 0.1363
596 0.1358
597 0.1369
598 0.1369
599 0.1358
600 0.1363
601 0.1356
602 0.1341
603 0.1349
604 0.1375
605 0.1382
606 0.1376
607 0.1372
608 0.1368
609 0.1357
610 0.1351
611 0.1353
612 0.1357
613 0.1352
614 0.1336
615 0.1337
616 0.1328
617 0.1304
618 0.1326
619 0.1348
620 0.1358
621 0.1371
622 0.1363
623 0.1356
624 0.135
625 0.134
626 0.1336
627 0.1364
628 0.1382
629 0.1385
630 0.137
631 0.1365
632 0.1347
633 0.1365
634 0.1359
635 0.1365
636 0.1366
637 0.1364
638 0.1385
639 0.1385
640 0.1359
641 0.135
642 0.1346
643 0.1361
644 0.1358
645 0.1362
646 0.1351
647 0.1354
648 0.1365
649 0.1363
650 0.1324
651 0.1372
652 0.1381
653 0.1362
654 0.1352
655 0.1332
656 0.1246
657 0.1146
658 0.1269
659 0.1332
660 0.1338
661 0.1351
662 0.136
663 0.1356
664 0.1341
665 0.1346
666 0.1351
667 0.1344
668 0.1342
669 0.1352
670 0.135
671 0.1346
672 0.1341
673 0.1338
674 0.1336
675 0.1335
676 0.1334
677 0.1333
678 0.1332
679 0.1331
680 0.1331
681 0.133
682 0.133
683 0.133
684 0.133
685 0.1331
686 0.1331
687 0.1331
688 0.1332
689 0.1335
690 0.1343
691 0.1347
692 0.1341
693 0.1337
694 0.134
695 0.1334
696 0.1333
697 0.1338
698 0.1321
699 0.1338
700 0.1343
701 0.1325
702 0.1318
703 0.1324
704 0.1332
705 0.1346
706 0.1338
707 0.1323
708 0.1326
709 0.1315
710 0.1307
711 0.1313
712 0.1296
713 0.1292
714 0.1295
715 0.1294
716 0.129
717 0.1296
718 0.1295
719 0.1279
720 0.1281
721 0.1284
722 0.1285
723 0.1285
724 0.1291
725 0.1289
726 0.1279
727 0.1283
728 0.1281
729 0.1258
730 0.1254
731 0.1278
732 0.1276
733 0.1276
734 0.1277
735 0.1278
736 0.1265
737 0.1262
738 0.1261
739 0.1234
740 0.1236
741 0.123
742 0.1222
743 0.1241
744 0.126
745 0.1248
746 0.1262
747 0.1258
748 0.1263
749 0.1257
750 0.1243
