# Top-of-atmosphere (TOA) lunar irradiance from Miller and Turner (2009)
# First column wavelength (nm), second column TOA irradiance# Lunar phase angle: 9
# Irradiance units: mW/m^2-micrometer

300 0.00041
301 0.000305
302 0.0003842
303 0.0003672
304 0.0005196
305 0.0004841
306 0.0004944
307 0.0004575
308 0.0005323
309 0.0005371
310 0.0004103
311 0.0005453
312 0.0006472
313 0.0005623
314 0.0006103
315 0.000561
316 0.0005779
317 0.0005284
318 0.0007361
319 0.0005664
320 0.0006244
321 0.0007717
322 0.0006125
323 0.0006421
324 0.0005991
325 0.0007183
326 0.0008048
327 0.0009179
328 0.0008916
329 0.0008293
330 0.00102
331 0.0009418
332 0.000933
333 0.0009057
334 0.0008681
335 0.000929
336 0.0009474
337 0.0007503
338 0.0008241
339 0.000885
340 0.000922
341 0.001019
342 0.0008938
343 0.0009948
344 0.001
345 0.0007221
346 0.0009859
347 0.0009154
348 0.0009086
349 0.0009478
350 0.0008548
351 0.00113
352 0.001009
353 0.0009042
354 0.001092
355 0.001162
356 0.00109
357 0.0009751
358 0.000886
359 0.0006618
360 0.001133
361 0.001069
362 0.000948
363 0.001084
364 0.001024
365 0.001106
366 0.00127
367 0.001353
368 0.001305
369 0.001165
370 0.001372
371 0.001217
372 0.001408
373 0.001164
374 0.001005
375 0.001026
376 0.001234
377 0.001212
378 0.001461
379 0.00157
380 0.001201
381 0.001407
382 0.001279
383 0.000918
384 0.0007654
385 0.001111
386 0.001169
387 0.001185
388 0.001158
389 0.001114
390 0.001425
391 0.001459
392 0.0017
393 0.001286
394 0.0005605
395 0.001298
396 0.00168
397 0.0008937
398 0.001005
399 0.001917
400 0.002063
401 0.002073
402 0.002257
403 0.002293
404 0.002247
405 0.002197
406 0.002137
407 0.002082
408 0.002113
409 0.002143
410 0.002163
411 0.002005
412 0.002088
413 0.002171
414 0.002255
415 0.002265
416 0.002271
417 0.002302
418 0.002257
419 0.002257
420 0.00226
421 0.002317
422 0.002363
423 0.002283
424 0.002257
425 0.002313
426 0.002298
427 0.00229
428 0.002206
429 0.002206
430 0.002004
431 0.001674
432 0.002075
433 0.002295
434 0.002267
435 0.002221
436 0.002389
437 0.002525
438 0.002449
439 0.002356
440 0.002456
441 0.002565
442 0.002664
443 0.002748
444 0.002758
445 0.002762
446 0.002718
447 0.002703
448 0.002864
449 0.002902
450 0.002933
451 0.003068
452 0.003085
453 0.002943
454 0.00287
455 0.003005
456 0.003028
457 0.003113
458 0.003117
459 0.003044
460 0.003028
461 0.003078
462 0.00313
463 0.003163
464 0.003131
465 0.003064
466 0.003068
467 0.003046
468 0.003033
469 0.003091
470 0.003071
471 0.00303
472 0.003108
473 0.003207
474 0.003169
475 0.003241
476 0.003243
477 0.003202
478 0.00329
479 0.003292
480 0.003293
481 0.003281
482 0.003309
483 0.003282
484 0.003243
485 0.003208
486 0.002922
487 0.002763
488 0.002994
489 0.003091
490 0.003221
491 0.003271
492 0.00316
493 0.003156
494 0.003198
495 0.003278
496 0.003283
497 0.003275
498 0.003253
499 0.003203
500 0.003202
501 0.003154
502 0.003095
503 0.003165
504 0.003228
505 0.003219
506 0.003342
507 0.003397
508 0.003352
509 0.003306
510 0.003257
511 0.003225
512 0.003293
513 0.003262
514 0.003187
515 0.00315
516 0.003202
517 0.002985
518 0.00281
519 0.00292
520 0.00313
521 0.003191
522 0.003254
523 0.003193
524 0.003253
525 0.003356
526 0.003323
527 0.003046
528 0.003123
529 0.003328
530 0.003365
531 0.003417
532 0.003428
533 0.003394
534 0.003351
535 0.003366
536 0.00347
537 0.003395
538 0.0034
539 0.003426
540 0.003354
541 0.003291
542 0.003367
543 0.00341
544 0.003444
545 0.003478
546 0.003491
547 0.003496
548 0.00346
549 0.003481
550 0.003527
551 0.003513
552 0.00353
553 0.003529
554 0.003523
555 0.003564
556 0.00355
557 0.003482
558 0.003444
559 0.003404
560 0.003362
561 0.003448
562 0.003484
563 0.003449
564 0.00347
565 0.003483
566 0.003457
567 0.003464
568 0.003529
569 0.003506
570 0.003501
571 0.00347
572 0.00348
573 0.00362
574 0.003642
575 0.003616
576 0.003567
577 0.003586
578 0.003598
579 0.003553
580 0.003585
581 0.003622
582 0.003644
583 0.003685
584 0.003693
585 0.003671
586 0.003609
587 0.003607
588 0.003661
589 0.003525
590 0.003379
591 0.003547
592 0.003635
593 0.003648
594 0.003647
595 0.003664
596 0.003652
597 0.003682
598 0.003683
599 0.003654
600 0.003667
601 0.003649
602 0.003611
603 0.003631
604 0.003702
605 0.003721
606 0.003705
607 0.003696
608 0.003686
609 0.003656
610 0.003641
611 0.003648
612 0.003658
613 0.003646
614 0.003605
615 0.003607
616 0.003583
617 0.003521
618 0.003581
619 0.003639
620 0.003667
621 0.003705
622 0.003684
623 0.003666
624 0.00365
625 0.003622
626 0.003614
627 0.00369
628 0.00374
629 0.003746
630 0.003708
631 0.003696
632 0.003647
633 0.003697
634 0.003682
635 0.003699
636 0.003702
637 0.003697
638 0.003753
639 0.003755
640 0.003685
641 0.003661
642 0.00365
643 0.003693
644 0.003686
645 0.003695
646 0.003668
647 0.003677
648 0.003708
649 0.003702
650 0.003597
651 0.003728
652 0.003752
653 0.003702
654 0.003676
655 0.003623
656 0.003388
657 0.003117
658 0.003454
659 0.003625
660 0.003641
661 0.003677
662 0.003702
663 0.003694
664 0.003654
665 0.003668
666 0.003681
667 0.003664
668 0.003659
669 0.003686
670 0.003681
671 0.003671
672 0.003657
673 0.00365
674 0.003647
675 0.003644
676 0.003642
677 0.00364
678 0.003638
679 0.003637
680 0.003636
681 0.003636
682 0.003636
683 0.003637
684 0.003638
685 0.003639
686 0.003641
687 0.003643
688 0.003645
689 0.003655
690 0.003677
691 0.003687
692 0.003672
693 0.003662
694 0.003672
695 0.003654
696 0.003654
697 0.003669
698 0.003622
699 0.00367
700 0.003683
701 0.003636
702 0.003616
703 0.003634
704 0.003655
705 0.003696
706 0.003675
707 0.003634
708 0.003642
709 0.003612
710 0.003591
711 0.003608
712 0.003562
713 0.003552
714 0.003562
715 0.003558
716 0.003548
717 0.003567
718 0.003565
719 0.003522
720 0.003527
721 0.003536
722 0.003541
723 0.003539
724 0.003557
725 0.003551
726 0.003524
727 0.003537
728 0.003533
729 0.003471
730 0.003459
731 0.003526
732 0.003521
733 0.003521
734 0.003524
735 0.003528
736 0.003494
737 0.003487
738 0.003485
739 0.003409
740 0.003417
741 0.003401
742 0.003378
743 0.003432
744 0.003485
745 0.003453
746 0.003492
747 0.003482
748 0.003497
749 0.003479
750 0.003443
