# Top-of-atmosphere (TOA) lunar irradiance from Miller and Turner (2009)
# First column wavelength (nm), second column TOA irradiance# Lunar phase angle: 5
# Irradiance units: mW/m^2-micrometer

300 0.000317
301 0.0002358
302 0.000297
303 0.0002839
304 0.0004016
305 0.0003741
306 0.0003821
307 0.0003535
308 0.0004113
309 0.0004149
310 0.0003169
311 0.0004211
312 0.0004998
313 0.0004342
314 0.0004712
315 0.0004331
316 0.000446
317 0.0004078
318 0.0005681
319 0.000437
320 0.0004818
321 0.0005954
322 0.0004724
323 0.0004953
324 0.000462
325 0.0005539
326 0.0006206
327 0.0007077
328 0.0006873
329 0.0006392
330 0.0007859
331 0.0007258
332 0.0007189
333 0.0006978
334 0.0006688
335 0.0007156
336 0.0007297
337 0.0005778
338 0.0006345
339 0.0006814
340 0.0007098
341 0.0007843
342 0.0006879
343 0.0007656
344 0.0007699
345 0.0005556
346 0.0007585
347 0.0007042
348 0.0006989
349 0.000729
350 0.0006574
351 0.000869
352 0.0007758
353 0.0006951
354 0.0008391
355 0.0008932
356 0.0008378
357 0.0007492
358 0.0006808
359 0.0005085
360 0.0008703
361 0.0008211
362 0.000728
363 0.0008327
364 0.0007866
365 0.0008492
366 0.0009751
367 0.001038
368 0.001002
369 0.0008941
370 0.001053
371 0.0009335
372 0.00108
373 0.0008928
374 0.0007711
375 0.000787
376 0.0009463
377 0.0009291
378 0.00112
379 0.001203
380 0.0009203
381 0.001078
382 0.0009803
383 0.0007034
384 0.0005864
385 0.0008508
386 0.0008956
387 0.0009073
388 0.0008867
389 0.0008531
390 0.001091
391 0.001117
392 0.001301
393 0.0009844
394 0.0004289
395 0.0009934
396 0.001286
397 0.0006837
398 0.0007689
399 0.001466
400 0.001578
401 0.001586
402 0.001726
403 0.001753
404 0.001718
405 0.00168
406 0.001633
407 0.001591
408 0.001614
409 0.001638
410 0.001652
411 0.001531
412 0.001594
413 0.001658
414 0.001722
415 0.001729
416 0.001734
417 0.001757
418 0.001723
419 0.001723
420 0.001725
421 0.001768
422 0.001803
423 0.001742
424 0.001722
425 0.001764
426 0.001753
427 0.001746
428 0.001682
429 0.001682
430 0.001527
431 0.001276
432 0.001582
433 0.001749
434 0.001727
435 0.001692
436 0.00182
437 0.001923
438 0.001865
439 0.001794
440 0.00187
441 0.001953
442 0.002028
443 0.002092
444 0.002099
445 0.002102
446 0.002068
447 0.002056
448 0.002179
449 0.002207
450 0.002231
451 0.002333
452 0.002346
453 0.002237
454 0.002182
455 0.002284
456 0.002301
457 0.002366
458 0.002369
459 0.002313
460 0.0023
461 0.002338
462 0.002377
463 0.002402
464 0.002377
465 0.002327
466 0.002329
467 0.002313
468 0.002302
469 0.002346
470 0.002331
471 0.002299
472 0.002358
473 0.002433
474 0.002404
475 0.002459
476 0.002459
477 0.002428
478 0.002494
479 0.002496
480 0.002496
481 0.002487
482 0.002508
483 0.002487
484 0.002457
485 0.002431
486 0.002214
487 0.002093
488 0.002268
489 0.002341
490 0.002439
491 0.002477
492 0.002392
493 0.002389
494 0.00242
495 0.002481
496 0.002485
497 0.002478
498 0.002461
499 0.002423
500 0.002422
501 0.002386
502 0.002341
503 0.002393
504 0.002441
505 0.002434
506 0.002526
507 0.002568
508 0.002533
509 0.002498
510 0.002461
511 0.002437
512 0.002487
513 0.002463
514 0.002407
515 0.002379
516 0.002417
517 0.002253
518 0.002121
519 0.002204
520 0.002362
521 0.002408
522 0.002455
523 0.002409
524 0.002454
525 0.002531
526 0.002506
527 0.002297
528 0.002355
529 0.002509
530 0.002537
531 0.002576
532 0.002584
533 0.002558
534 0.002525
535 0.002536
536 0.002614
537 0.002558
538 0.002561
539 0.002581
540 0.002525
541 0.002478
542 0.002535
543 0.002567
544 0.002592
545 0.002618
546 0.002627
547 0.002631
548 0.002603
549 0.002619
550 0.002653
551 0.002643
552 0.002655
553 0.002654
554 0.002649
555 0.002679
556 0.002669
557 0.002617
558 0.002588
559 0.002558
560 0.002526
561 0.002591
562 0.002617
563 0.00259
564 0.002606
565 0.002616
566 0.002596
567 0.0026
568 0.002649
569 0.002631
570 0.002628
571 0.002604
572 0.002612
573 0.002716
574 0.002732
575 0.002712
576 0.002675
577 0.00269
578 0.002698
579 0.002664
580 0.002688
581 0.002715
582 0.002731
583 0.002762
584 0.002767
585 0.00275
586 0.002704
587 0.002702
588 0.002742
589 0.00264
590 0.002531
591 0.002656
592 0.002722
593 0.002731
594 0.00273
595 0.002742
596 0.002733
597 0.002755
598 0.002755
599 0.002733
600 0.002743
601 0.002729
602 0.0027
603 0.002715
604 0.002768
605 0.002782
606 0.00277
607 0.002763
608 0.002755
609 0.002732
610 0.002721
611 0.002725
612 0.002733
613 0.002724
614 0.002693
615 0.002694
616 0.002676
617 0.002629
618 0.002673
619 0.002717
620 0.002737
621 0.002765
622 0.002749
623 0.002735
624 0.002723
625 0.002702
626 0.002696
627 0.002752
628 0.002789
629 0.002794
630 0.002765
631 0.002755
632 0.002719
633 0.002756
634 0.002744
635 0.002756
636 0.002758
637 0.002754
638 0.002796
639 0.002797
640 0.002744
641 0.002726
642 0.002718
643 0.00275
644 0.002744
645 0.002751
646 0.00273
647 0.002737
648 0.002759
649 0.002754
650 0.002676
651 0.002773
652 0.002791
653 0.002753
654 0.002734
655 0.002694
656 0.002519
657 0.002317
658 0.002567
659 0.002694
660 0.002706
661 0.002732
662 0.002751
663 0.002744
664 0.002714
665 0.002724
666 0.002734
667 0.002721
668 0.002716
669 0.002736
670 0.002732
671 0.002724
672 0.002714
673 0.002708
674 0.002706
675 0.002704
676 0.002701
677 0.0027
678 0.002698
679 0.002697
680 0.002696
681 0.002696
682 0.002696
683 0.002696
684 0.002696
685 0.002697
686 0.002698
687 0.002699
688 0.002701
689 0.002707
690 0.002724
691 0.002731
692 0.002719
693 0.002711
694 0.002718
695 0.002705
696 0.002705
697 0.002715
698 0.002681
699 0.002715
700 0.002725
701 0.00269
702 0.002675
703 0.002688
704 0.002703
705 0.002733
706 0.002717
707 0.002687
708 0.002692
709 0.00267
710 0.002654
711 0.002667
712 0.002632
713 0.002624
714 0.002632
715 0.002628
716 0.00262
717 0.002634
718 0.002633
719 0.0026
720 0.002603
721 0.00261
722 0.002613
723 0.002612
724 0.002625
725 0.00262
726 0.0026
727 0.002609
728 0.002606
729 0.00256
730 0.002551
731 0.0026
732 0.002595
733 0.002596
734 0.002598
735 0.0026
736 0.002575
737 0.002569
738 0.002568
739 0.002512
740 0.002517
741 0.002505
742 0.002488
743 0.002527
744 0.002566
745 0.002542
746 0.002571
747 0.002563
748 0.002573
749 0.00256
750 0.002533
