# Top-of-atmosphere (TOA) lunar irradiance from Miller and Turner (2009)
# First column wavelength (nm), second column TOA irradiance# Lunar phase angle: 114
# Irradiance units: mW/m^2-micrometer

300 0.1169
301 0.08689
302 0.1094
303 0.1045
304 0.1479
305 0.1377
306 0.1406
307 0.1301
308 0.1513
309 0.1526
310 0.1165
311 0.1548
312 0.1836
313 0.1595
314 0.173
315 0.159
316 0.1637
317 0.1496
318 0.2083
319 0.1602
320 0.1766
321 0.2181
322 0.1731
323 0.1814
324 0.1691
325 0.2027
326 0.2271
327 0.2589
328 0.2513
329 0.2337
330 0.2872
331 0.2652
332 0.2626
333 0.2548
334 0.2441
335 0.2612
336 0.2662
337 0.2107
338 0.2314
339 0.2484
340 0.2587
341 0.2857
342 0.2505
343 0.2788
344 0.2802
345 0.2022
346 0.2759
347 0.2561
348 0.2541
349 0.265
350 0.2389
351 0.3157
352 0.2817
353 0.2524
354 0.3046
355 0.3241
356 0.3039
357 0.2717
358 0.2468
359 0.1843
360 0.3153
361 0.2974
362 0.2636
363 0.3014
364 0.2847
365 0.3072
366 0.3527
367 0.3755
368 0.3622
369 0.3231
370 0.3803
371 0.3372
372 0.3901
373 0.3223
374 0.2783
375 0.284
376 0.3413
377 0.335
378 0.4038
379 0.4336
380 0.3315
381 0.3882
382 0.353
383 0.2532
384 0.211
385 0.3061
386 0.3221
387 0.3262
388 0.3187
389 0.3066
390 0.392
391 0.4012
392 0.4672
393 0.3533
394 0.1539
395 0.3564
396 0.4611
397 0.2451
398 0.2756
399 0.5253
400 0.5651
401 0.5678
402 0.6178
403 0.6275
404 0.6147
405 0.6008
406 0.584
407 0.5689
408 0.5769
409 0.5851
410 0.5902
411 0.5468
412 0.5692
413 0.5916
414 0.6142
415 0.6167
416 0.6183
417 0.6263
418 0.6139
419 0.6137
420 0.6143
421 0.6295
422 0.6417
423 0.6198
424 0.6124
425 0.6275
426 0.6232
427 0.6207
428 0.5977
429 0.5975
430 0.5424
431 0.453
432 0.5614
433 0.6205
434 0.6126
435 0.6
436 0.6451
437 0.6815
438 0.6608
439 0.6354
440 0.6622
441 0.6913
442 0.7178
443 0.74
444 0.7424
445 0.7433
446 0.7312
447 0.7267
448 0.7697
449 0.7795
450 0.7878
451 0.8236
452 0.8278
453 0.7893
454 0.7696
455 0.8053
456 0.8112
457 0.8337
458 0.8345
459 0.8145
460 0.8099
461 0.823
462 0.8365
463 0.845
464 0.8361
465 0.818
466 0.8186
467 0.8126
468 0.8088
469 0.8238
470 0.8182
471 0.8069
472 0.8274
473 0.8534
474 0.8429
475 0.8619
476 0.862
477 0.8508
478 0.8737
479 0.8739
480 0.8739
481 0.8702
482 0.8774
483 0.87
484 0.8593
485 0.8497
486 0.7736
487 0.7312
488 0.7921
489 0.8174
490 0.8514
491 0.8643
492 0.8346
493 0.8333
494 0.8439
495 0.8648
496 0.8658
497 0.8633
498 0.8571
499 0.8436
500 0.8429
501 0.8301
502 0.8142
503 0.8322
504 0.8486
505 0.8458
506 0.8777
507 0.892
508 0.8796
509 0.8672
510 0.8542
511 0.8454
512 0.8628
513 0.8543
514 0.8343
515 0.8244
516 0.8376
517 0.7805
518 0.7346
519 0.763
520 0.8174
521 0.8332
522 0.8493
523 0.8329
524 0.8484
525 0.8748
526 0.866
527 0.7935
528 0.8131
529 0.8661
530 0.8754
531 0.8887
532 0.8912
533 0.882
534 0.8704
535 0.8739
536 0.9005
537 0.8809
538 0.8816
539 0.8882
540 0.869
541 0.8524
542 0.8718
543 0.8827
544 0.8909
545 0.8995
546 0.9025
547 0.9034
548 0.8937
549 0.8988
550 0.9103
551 0.9064
552 0.9105
553 0.9098
554 0.9079
555 0.9179
556 0.9142
557 0.8962
558 0.886
559 0.8753
560 0.8643
561 0.8861
562 0.895
563 0.8855
564 0.8906
565 0.8937
566 0.8866
567 0.8879
568 0.9044
569 0.898
570 0.8964
571 0.8882
572 0.8905
573 0.9258
574 0.9311
575 0.9239
576 0.9111
577 0.9157
578 0.9182
579 0.9066
580 0.9143
581 0.9233
582 0.9285
583 0.9386
584 0.9403
585 0.9343
586 0.9183
587 0.9173
588 0.9307
589 0.8958
590 0.8585
591 0.9007
592 0.9228
593 0.9256
594 0.9251
595 0.9289
596 0.9256
597 0.9328
598 0.9325
599 0.9248
600 0.9277
601 0.9228
602 0.9128
603 0.9176
604 0.9353
605 0.9397
606 0.9353
607 0.9326
608 0.9297
609 0.9218
610 0.9176
611 0.9189
612 0.9212
613 0.9178
614 0.9071
615 0.9073
616 0.9009
617 0.8849
618 0.8996
619 0.9139
620 0.9204
621 0.9296
622 0.924
623 0.9191
624 0.9148
625 0.9074
626 0.905
627 0.9236
628 0.9358
629 0.9371
630 0.9271
631 0.9236
632 0.9112
633 0.9233
634 0.919
635 0.9229
636 0.9234
637 0.9217
638 0.9353
639 0.9356
640 0.9177
641 0.9113
642 0.9083
643 0.9187
644 0.9164
645 0.9184
646 0.9113
647 0.9132
648 0.9205
649 0.9186
650 0.8921
651 0.9245
652 0.93
653 0.9173
654 0.9105
655 0.8969
656 0.8384
657 0.771
658 0.8539
659 0.8959
660 0.8996
661 0.908
662 0.9139
663 0.9115
664 0.9012
665 0.9043
666 0.9073
667 0.9028
668 0.901
669 0.9074
670 0.9057
671 0.9029
672 0.8992
673 0.8971
674 0.896
675 0.895
676 0.894
677 0.8932
678 0.8925
679 0.8918
680 0.8913
681 0.8909
682 0.8905
683 0.8903
684 0.8902
685 0.8902
686 0.8902
687 0.8904
688 0.8907
689 0.8926
690 0.8978
691 0.8998
692 0.8956
693 0.893
694 0.8949
695 0.8904
696 0.8901
697 0.8932
698 0.8815
699 0.8927
700 0.8956
701 0.8839
702 0.8786
703 0.8827
704 0.8874
705 0.897
706 0.8916
707 0.8813
708 0.8827
709 0.8752
710 0.8698
711 0.8736
712 0.8621
713 0.8592
714 0.8615
715 0.8601
716 0.8573
717 0.8614
718 0.8608
719 0.85
720 0.8508
721 0.8527
722 0.8535
723 0.8528
724 0.8568
725 0.855
726 0.8482
727 0.8509
728 0.8496
729 0.8343
730 0.8311
731 0.8468
732 0.8453
733 0.845
734 0.8455
735 0.8461
736 0.8376
737 0.8354
738 0.8347
739 0.8163
740 0.8178
741 0.8136
742 0.8079
743 0.8205
744 0.8329
745 0.8247
746 0.8338
747 0.831
748 0.8342
749 0.8297
750 0.8207
