# Top-of-atmosphere (TOA) lunar irradiance from Miller and Turner (2009)
# First column wavelength (nm), second column TOA irradiance# Lunar phase angle: 106
# Irradiance units: mW/m^2-micrometer

300 0.09415
301 0.07001
302 0.08815
303 0.08424
304 0.1191
305 0.111
306 0.1133
307 0.1048
308 0.1219
309 0.1229
310 0.09386
311 0.1247
312 0.1479
313 0.1285
314 0.1394
315 0.1281
316 0.1319
317 0.1205
318 0.1679
319 0.1291
320 0.1423
321 0.1758
322 0.1395
323 0.1462
324 0.1363
325 0.1634
326 0.183
327 0.2086
328 0.2025
329 0.1883
330 0.2315
331 0.2137
332 0.2116
333 0.2054
334 0.1968
335 0.2105
336 0.2145
337 0.1698
338 0.1865
339 0.2002
340 0.2085
341 0.2303
342 0.2019
343 0.2247
344 0.2259
345 0.163
346 0.2224
347 0.2064
348 0.2048
349 0.2136
350 0.1925
351 0.2544
352 0.2271
353 0.2034
354 0.2455
355 0.2612
356 0.245
357 0.219
358 0.1989
359 0.1486
360 0.2542
361 0.2398
362 0.2125
363 0.243
364 0.2295
365 0.2477
366 0.2843
367 0.3027
368 0.292
369 0.2605
370 0.3066
371 0.2718
372 0.3145
373 0.2598
374 0.2243
375 0.2289
376 0.2752
377 0.2701
378 0.3256
379 0.3496
380 0.2673
381 0.313
382 0.2846
383 0.2041
384 0.1701
385 0.2468
386 0.2597
387 0.263
388 0.257
389 0.2472
390 0.3161
391 0.3235
392 0.3767
393 0.2849
394 0.1241
395 0.2874
396 0.3718
397 0.1976
398 0.2222
399 0.4236
400 0.4557
401 0.4579
402 0.4982
403 0.5061
404 0.4957
405 0.4845
406 0.471
407 0.4588
408 0.4653
409 0.4718
410 0.4759
411 0.441
412 0.459
413 0.4772
414 0.4954
415 0.4974
416 0.4987
417 0.5051
418 0.4951
419 0.495
420 0.4955
421 0.5077
422 0.5176
423 0.4999
424 0.494
425 0.5061
426 0.5026
427 0.5006
428 0.4821
429 0.482
430 0.4375
431 0.3654
432 0.4528
433 0.5005
434 0.4942
435 0.484
436 0.5204
437 0.5498
438 0.533
439 0.5125
440 0.5342
441 0.5576
442 0.579
443 0.597
444 0.5989
445 0.5997
446 0.5898
447 0.5863
448 0.6209
449 0.6289
450 0.6356
451 0.6644
452 0.6678
453 0.6368
454 0.6209
455 0.6497
456 0.6545
457 0.6727
458 0.6733
459 0.6571
460 0.6534
461 0.664
462 0.6749
463 0.6818
464 0.6746
465 0.66
466 0.6605
467 0.6557
468 0.6526
469 0.6647
470 0.6602
471 0.6511
472 0.6676
473 0.6886
474 0.6801
475 0.6955
476 0.6956
477 0.6865
478 0.705
479 0.7052
480 0.7052
481 0.7023
482 0.708
483 0.702
484 0.6935
485 0.6857
486 0.6243
487 0.5901
488 0.6392
489 0.6596
490 0.6871
491 0.6975
492 0.6736
493 0.6725
494 0.6811
495 0.698
496 0.6988
497 0.6967
498 0.6918
499 0.6809
500 0.6804
501 0.67
502 0.6572
503 0.6717
504 0.6849
505 0.6827
506 0.7084
507 0.72
508 0.71
509 0.7
510 0.6895
511 0.6824
512 0.6965
513 0.6896
514 0.6735
515 0.6655
516 0.6761
517 0.6301
518 0.593
519 0.616
520 0.6599
521 0.6727
522 0.6856
523 0.6724
524 0.6849
525 0.7063
526 0.6991
527 0.6406
528 0.6564
529 0.6992
530 0.7067
531 0.7175
532 0.7195
533 0.7121
534 0.7028
535 0.7055
536 0.7271
537 0.7112
538 0.7118
539 0.7172
540 0.7016
541 0.6882
542 0.7039
543 0.7127
544 0.7194
545 0.7263
546 0.7287
547 0.7295
548 0.7216
549 0.7257
550 0.735
551 0.7319
552 0.7352
553 0.7347
554 0.7332
555 0.7413
556 0.7382
557 0.7237
558 0.7155
559 0.7068
560 0.6979
561 0.7156
562 0.7228
563 0.7151
564 0.7193
565 0.7217
566 0.716
567 0.7171
568 0.7304
569 0.7252
570 0.7239
571 0.7173
572 0.7192
573 0.7477
574 0.752
575 0.7462
576 0.7359
577 0.7396
578 0.7416
579 0.7322
580 0.7384
581 0.7458
582 0.75
583 0.7581
584 0.7595
585 0.7546
586 0.7417
587 0.7409
588 0.7518
589 0.7236
590 0.6935
591 0.7275
592 0.7454
593 0.7477
594 0.7473
595 0.7504
596 0.7477
597 0.7535
598 0.7533
599 0.7471
600 0.7494
601 0.7455
602 0.7374
603 0.7413
604 0.7556
605 0.7591
606 0.7556
607 0.7535
608 0.7511
609 0.7447
610 0.7414
611 0.7424
612 0.7443
613 0.7415
614 0.7329
615 0.733
616 0.7279
617 0.715
618 0.7268
619 0.7384
620 0.7436
621 0.7511
622 0.7466
623 0.7426
624 0.7392
625 0.7332
626 0.7312
627 0.7463
628 0.7561
629 0.7572
630 0.7492
631 0.7463
632 0.7363
633 0.7461
634 0.7427
635 0.7458
636 0.7462
637 0.7449
638 0.7558
639 0.7561
640 0.7416
641 0.7364
642 0.734
643 0.7424
644 0.7406
645 0.7422
646 0.7365
647 0.7381
648 0.7439
649 0.7424
650 0.721
651 0.7472
652 0.7516
653 0.7413
654 0.7359
655 0.7249
656 0.6776
657 0.6232
658 0.6902
659 0.7241
660 0.7271
661 0.7339
662 0.7387
663 0.7368
664 0.7285
665 0.731
666 0.7334
667 0.7297
668 0.7283
669 0.7335
670 0.7321
671 0.7299
672 0.7269
673 0.7252
674 0.7243
675 0.7235
676 0.7227
677 0.722
678 0.7215
679 0.721
680 0.7205
681 0.7202
682 0.7199
683 0.7197
684 0.7196
685 0.7196
686 0.7197
687 0.7199
688 0.7201
689 0.7217
690 0.7259
691 0.7275
692 0.7241
693 0.722
694 0.7236
695 0.7199
696 0.7196
697 0.7222
698 0.7128
699 0.7218
700 0.7241
701 0.7147
702 0.7104
703 0.7137
704 0.7175
705 0.7253
706 0.721
707 0.7126
708 0.7138
709 0.7077
710 0.7034
711 0.7065
712 0.6971
713 0.6948
714 0.6966
715 0.6955
716 0.6933
717 0.6966
718 0.6961
719 0.6874
720 0.688
721 0.6896
722 0.6903
723 0.6897
724 0.693
725 0.6915
726 0.686
727 0.6882
728 0.6872
729 0.6748
730 0.6722
731 0.6849
732 0.6836
733 0.6835
734 0.6838
735 0.6844
736 0.6774
737 0.6757
738 0.6751
739 0.6602
740 0.6615
741 0.6581
742 0.6535
743 0.6636
744 0.6737
745 0.6671
746 0.6745
747 0.6722
748 0.6748
749 0.6712
750 0.6638
