# Top-of-atmosphere (TOA) lunar irradiance from Miller and Turner (2009) by 10 nm increments
# First column wavelength (nm), second column TOA irradiance# Phase angle = 34
# Units = mW/m^2-micrometer

300 0.00257
310 0.002574
320 0.003921
330 0.006408
340 0.005799
350 0.00538
360 0.007136
370 0.008646
380 0.007574
390 0.008998
400 0.01303
410 0.01367
420 0.0143
430 0.01269
440 0.01556
450 0.0186
460 0.01922
470 0.01951
480 0.02093
490 0.02049
500 0.02038
510 0.02075
520 0.01995
530 0.02147
540 0.02141
550 0.02254
560 0.0215
570 0.02241
580 0.02296
590 0.02166
600 0.02352
610 0.02338
620 0.02356
630 0.02384
640 0.02371
650 0.02316
660 0.02347
670 0.02374
680 0.02347
690 0.02375
700 0.02381
710 0.02323
720 0.02283
730 0.02241
740 0.02216
750 0.02234
